%OpenBCI Raw EXG Data
%Number of channels = 8
%Sample Rate = 250 Hz
%Board = OpenBCI_GUI$BoardCytonSerial
Sample Index, EXG Channel 0, EXG Channel 1, EXG Channel 2, EXG Channel 3, EXG Channel 4, EXG Channel 5, EXG Channel 6, EXG Channel 7, Accel Channel 0, Accel Channel 1, Accel Channel 2, Other, Other, Other, Other, Other, Other, Other, Analog Channel 0, Analog Channel 1, Analog Channel 2, Timestamp, Other, Timestamp (Formatted)
0.0, 0.0, 0.0, 0.0, 0.0, 0.0, 0.0, 0.0, 0.0, 0.0, 0.0, 0.0, 192.0, 0.0, 0.0, 0.0, 0.0, 0.0, 0.0, 0.0, 0.0, 0.0, 1.7243832297518618E9, 0.0, 2024-08-23 11:20:29.751
1.0, 187500.0, 103283.36546222752, 115863.53073877463, 113819.73192927027, 114280.89312087216, 110704.12226964501, 112412.60020883086, 139458.30040673024, 0.064, 0.194, 0.992, 192.0, 2.0, 0.0, 6.0, 16.0, 31.0, 0.0, 0.0, 0.0, 0.0, 1.7243832297678134E9, 0.0, 2024-08-23 11:20:29.767
2.0, 187500.0, 103252.36359266801, 115832.95355235977, 113779.20821657279, 114263.79403636385, 110650.50043469673, 112383.0288509165, 139431.8135895507, 0.064, 0.194, 0.992, 192.0, 0.0, 0.0, 0.0, 0.0, 0.0, 0.0, 0.0, 0.0, 0.0, 1.7243832297717202E9, 0.0, 2024-08-23 11:20:29.771
3.0, 187500.0, 103244.00404024174, 115827.3432645015, 113764.81369314357, 114254.65217288163, 110638.3634374575, 112381.79950497145, 139422.649374324, 0.064, 0.194, 0.992, 192.0, 0.0, 0.0, 0.0, 0.0, 0.0, 0.0, 0.0, 0.0, 0.0, 1.72438322977473E9, 0.0, 2024-08-23 11:20:29.774
4.0, 187500.0, 103320.89404116798, 115902.89216076043, 113854.15361573144, 114327.92119120613, 110749.22808995582, 112451.98398256111, 139496.7677589378, 0.064, 0.194, 0.992, 192.0, 0.0, 0.0, 0.0, 0.0, 0.0, 0.0, 0.0, 0.0, 0.0, 1.724383229779724E9, 0.0, 2024-08-23 11:20:29.779
5.0, 187500.0, 103331.80169246218, 115910.20118119732, 113868.4810839273, 114332.81622324184, 110762.37091569554, 112456.20846226317, 139501.9757153959, 0.064, 0.194, 0.992, 192.0, 0.0, 0.0, 0.0, 0.0, 0.0, 0.0, 0.0, 0.0, 0.0, 1.7243832297838397E9, 0.0, 2024-08-23 11:20:29.783
6.0, 187500.0, 103305.11370958254, 115885.01076519619, 113833.43354862137, 114307.91637991864, 110718.22622039632, 112431.62154336233, 139475.1089185606, 0.064, 0.194, 0.992, 192.0, 0.0, 0.0, 0.0, 0.0, 0.0, 0.0, 0.0, 0.0, 0.0, 1.7243832297867467E9, 0.0, 2024-08-23 11:20:29.786
7.0, 187500.0, 103277.95634006934, 115860.08857012852, 113800.39767031642, 114286.61516745272, 110679.24477806626, 112408.15221168425, 139449.69498511494, 0.064, 0.194, 0.992, 192.0, 0.0, 0.0, 0.0, 0.0, 0.0, 0.0, 0.0, 0.0, 0.0, 1.7243832297907057E9, 0.0, 2024-08-23 11:20:29.790
8.0, 187500.0, 103278.04574704716, 115859.88740442842, 113797.02255690367, 114285.16230406312, 110676.96490013182, 112409.60507507385, 139454.21003749492, 0.048, 0.20400000000000001, 0.992, 192.0, 1.0, 128.0, 6.0, 96.0, 31.0, 0.0, 0.0, 0.0, 0.0, 1.724383229794767E9, 0.0, 2024-08-23 11:20:29.794
9.0, 187500.0, 103344.11750365705, 115925.28860870465, 113875.96891831982, 114344.4391303586, 110765.5895668971, 112472.68169792673, 139520.46060806044, 0.048, 0.20400000000000001, 0.992, 192.0, 0.0, 0.0, 0.0, 0.0, 0.0, 0.0, 0.0, 0.0, 0.0, 1.7243832297987792E9, 0.0, 2024-08-23 11:20:29.798
10.0, 187500.0, 103338.06018090966, 115919.07482374608, 113882.38386897849, 114336.92894422161, 110769.81404659916, 112467.47374146864, 139507.29543057625, 0.048, 0.20400000000000001, 0.992, 192.0, 0.0, 0.0, 0.0, 0.0, 0.0, 0.0, 0.0, 0.0, 0.0, 1.7243832298027916E9, 0.0, 2024-08-23 11:20:29.802
11.0, 187500.0, 103280.77265987071, 115861.72024747376, 113818.27906588068, 114282.5247982174, 110691.27001658322, 112414.20953443165, 139452.39954619404, 0.048, 0.20400000000000001, 0.992, 192.0, 0.0, 0.0, 0.0, 0.0, 0.0, 0.0, 0.0, 0.0, 0.0, 1.7243832298077588E9, 0.0, 2024-08-23 11:20:29.807
12.0, 187500.0, 103262.31011895063, 115846.00697112168, 113788.9535771553, 114259.79307410635, 110653.9649550873, 112402.74308952608, 139440.5084181438, 0.048, 0.20400000000000001, 0.992, 192.0, 0.0, 0.0, 0.0, 0.0, 0.0, 0.0, 0.0, 0.0, 0.0, 1.7243832298107667E9, 0.0, 2024-08-23 11:20:29.810
13.0, 187500.0, 103284.99713957276, 115871.01857316717, 113810.36654834349, 114286.43635349708, 110675.57909197558, 112427.8888020383, 139469.20805802444, 0.048, 0.20400000000000001, 0.992, 192.0, 0.0, 0.0, 0.0, 0.0, 0.0, 0.0, 0.0, 0.0, 0.0, 1.7243832298138692E9, 0.0, 2024-08-23 11:20:29.813
14.0, 187500.0, 103330.17001511694, 115912.7045765763, 113865.88828157047, 114331.87744997472, 110752.84907255758, 112459.91885184275, 139509.35179106615, 0.048, 0.20400000000000001, 0.992, 192.0, 0.0, 0.0, 0.0, 0.0, 0.0, 0.0, 0.0, 0.0, 0.0, 1.724383229818829E9, 0.0, 2024-08-23 11:20:29.818
15.0, 187500.0, 103326.72784647082, 115918.69484409034, 113870.15746476143, 114328.45763307305, 110766.37187795305, 112462.42224722175, 139501.75219795134, 0.048, 0.20400000000000001, 0.992, 192.0, 0.0, 0.0, 0.0, 0.0, 0.0, 0.0, 0.0, 0.0, 0.0, 1.7243832298227856E9, 0.0, 2024-08-23 11:20:29.822
16.0, 187500.0, 103300.39749150247, 115891.47041934376, 113824.93988572835, 114282.21187379502, 110713.5323540607, 112441.90334581178, 139474.9077528605, 0.048, 0.20400000000000001, 0.992, 192.0, 0.0, 0.0, 0.0, 0.0, 0.0, 0.0, 0.0, 0.0, 0.0, 1.7243832298268151E9, 0.0, 2024-08-23 11:20:29.826
17.0, 187500.0, 103286.00296807326, 115862.41315155187, 113799.2130278603, 114266.99033582096, 110676.0261268647, 112421.29503742397, 139467.35286323464, 0.048, 0.20400000000000001, 0.992, 192.0, 0.0, 0.0, 0.0, 0.0, 0.0, 0.0, 0.0, 0.0, 0.0, 1.7243832298308237E9, 0.0, 2024-08-23 11:20:29.830
18.0, 187500.0, 103317.16129984395, 115890.39753560991, 113835.44520562235, 114319.56163877984, 110712.81709823813, 112447.84890983689, 139493.83968041418, 0.046, 0.202, 0.99, 192.0, 1.0, 112.0, 6.0, 80.0, 30.0, 240.0, 0.0, 0.0, 0.0, 1.7243832298359275E9, 0.0, 2024-08-23 11:20:29.835
19.0, 187500.0, 103363.71998354436, 115935.50335592072, 113896.0854883296, 114372.11058999426, 110782.97922408333, 112485.802171922, 139531.85999773265, 0.046, 0.202, 0.99, 192.0, 0.0, 0.0, 0.0, 0.0, 0.0, 0.0, 0.0, 0.0, 0.0, 1.724383229838844E9, 0.0, 2024-08-23 11:20:29.838
20.0, 187500.0, 103354.28754738421, 115922.7628615812, 113887.77063939223, 114352.73162755152, 110776.27370074675, 112470.91591011477, 139520.66177376054, 0.046, 0.202, 0.99, 192.0, 0.0, 0.0, 0.0, 0.0, 0.0, 0.0, 0.0, 0.0, 0.0, 1.724383229841838E9, 0.0, 2024-08-23 11:20:29.841
21.0, 187500.0, 103321.5869452461, 115886.24011114123, 113843.38007490398, 114317.32646433431, 110730.1844036799, 112437.1871277317, 139488.0282268558, 0.046, 0.202, 0.99, 192.0, 0.0, 0.0, 0.0, 0.0, 0.0, 0.0, 0.0, 0.0, 0.0, 1.724383229846906E9, 0.0, 2024-08-23 11:20:29.846
22.0, 187500.0, 103302.632665948, 115864.26834634166, 113814.99335944574, 114305.12241186171, 110699.94249343187, 112419.0822147229, 139465.92235158948, 0.046, 0.202, 0.99, 192.0, 0.0, 0.0, 0.0, 0.0, 0.0, 0.0, 0.0, 0.0, 0.0, 1.724383229850901E9, 0.0, 2024-08-23 11:20:29.850
23.0, 187500.0, 103326.23610809281, 115888.96702396477, 113828.94084798585, 114324.27785685992, 110713.7335197608, 112443.66913362374, 139494.7337501924, 0.046, 0.202, 0.99, 192.0, 0.0, 0.0, 0.0, 0.0, 0.0, 0.0, 0.0, 0.0, 0.0, 1.7243832298548636E9, 0.0, 2024-08-23 11:20:29.854
24.0, 187500.0, 103363.54116958872, 115919.83478305755, 113873.10789502953, 114349.22240367203, 110766.61774714205, 112468.01018333557, 139535.8386082457, 0.046, 0.202, 0.99, 192.0, 0.0, 0.0, 0.0, 0.0, 0.0, 0.0, 0.0, 0.0, 0.0, 1.7243832298588607E9, 0.0, 2024-08-23 11:20:29.858
25.0, 187500.0, 103344.11750365705, 115896.63367231295, 113858.98159253379, 114321.30507484736, 110751.97735452383, 112444.18322374622, 139509.62001199962, 0.046, 0.202, 0.99, 192.0, 0.0, 0.0, 0.0, 0.0, 0.0, 0.0, 0.0, 0.0, 0.0, 1.7243832298628714E9, 0.0, 2024-08-23 11:20:29.862
26.0, 187500.0, 103331.08643663961, 115887.08947743053, 113843.87181328199, 114315.3818625667, 110725.71405478884, 112434.37080793033, 139492.90090714704, 0.046, 0.202, 0.99, 192.0, 0.0, 0.0, 0.0, 0.0, 0.0, 0.0, 0.0, 0.0, 0.0, 1.7243832298668594E9, 0.0, 2024-08-23 11:20:29.866
27.0, 187500.0, 103330.68410523942, 115887.49180883072, 113833.50060385473, 114315.89595268917, 110708.95024644736, 112439.75757834407, 139497.14773859354, 0.046, 0.202, 0.99, 192.0, 0.0, 0.0, 0.0, 0.0, 0.0, 0.0, 0.0, 0.0, 0.0, 1.7243832298699176E9, 0.0, 2024-08-23 11:20:29.869
28.0, 187500.0, 103361.64127131001, 115918.51603013469, 113857.126397744, 114343.3438948803, 110737.44872062787, 112473.55341596049, 139528.66369827554, 0.044, 0.202, 0.986, 192.0, 1.0, 96.0, 6.0, 80.0, 30.0, 208.0, 0.0, 0.0, 0.0, 1.7243832298739243E9, 0.0, 2024-08-23 11:20:29.873
29.0, 187500.0, 103385.155306477, 115937.64912338843, 113890.47520047131, 114356.86670027576, 110779.2017792704, 112489.4008027793, 139545.1369339391, 0.044, 0.202, 0.986, 192.0, 0.0, 0.0, 0.0, 0.0, 0.0, 0.0, 0.0, 0.0, 0.0, 1.724383229878892E9, 0.0, 2024-08-23 11:20:29.878
30.0, 187500.0, 103354.86869274006, 115906.84841952902, 113867.36349670452, 114319.87456320222, 110754.86072955857, 112458.2424710086, 139509.21768059942, 0.044, 0.202, 0.986, 192.0, 0.0, 0.0, 0.0, 0.0, 0.0, 0.0, 0.0, 0.0, 0.0, 1.724383229882907E9, 0.0, 2024-08-23 11:20:29.882
31.0, 187500.0, 103308.19825031738, 115861.76495096266, 113813.27227512268, 114273.00295507944, 110698.40022306445, 112415.2377146766, 139465.67648240048, 0.044, 0.202, 0.986, 192.0, 0.0, 0.0, 0.0, 0.0, 0.0, 0.0, 0.0, 0.0, 0.0, 1.7243832298869107E9, 0.0, 2024-08-23 11:20:29.886
32.0, 187500.0, 103320.5364132567, 115875.71243950278, 113816.46857457979, 114290.75024017696, 110690.93474041639, 112433.20851721866, 139483.84845064266, 0.044, 0.202, 0.986, 192.0, 0.0, 0.0, 0.0, 0.0, 0.0, 0.0, 0.0, 0.0, 0.0, 1.7243832298909268E9, 0.0, 2024-08-23 11:20:29.890
33.0, 187500.0, 103360.9483672319, 115916.41496615589, 113850.68909534087, 114324.65783651566, 110718.31562737413, 112477.28615728453, 139535.77155301234, 0.044, 0.202, 0.986, 192.0, 0.0, 0.0, 0.0, 0.0, 0.0, 0.0, 0.0, 0.0, 0.0, 1.7243832298949227E9, 0.0, 2024-08-23 11:20:29.894
34.0, 187500.0, 103411.21744051189, 115964.00183010125, 113914.61508448304, 114379.33020345334, 110788.67891891944, 112515.52999204755, 139580.67620762304, 0.044, 0.202, 0.986, 192.0, 0.0, 0.0, 0.0, 0.0, 0.0, 0.0, 0.0, 0.0, 0.0, 1.7243832298979304E9, 0.0, 2024-08-23 11:20:29.897
35.0, 187500.0, 103397.18054499396, 115949.9202310944, 113911.37408153703, 114369.31662193735, 110803.6545877045, 112494.83227668195, 139558.10094572318, 0.044, 0.202, 0.986, 192.0, 0.0, 0.0, 0.0, 0.0, 0.0, 0.0, 0.0, 0.0, 0.0, 1.7243832299019458E9, 0.0, 2024-08-23 11:20:29.901
36.0, 187500.0, 103359.45080035338, 115914.11273647699, 113872.68321188488, 114344.97557222552, 110772.07157278915, 112459.53887218701, 139511.6763724895, 0.044, 0.202, 0.986, 192.0, 0.0, 0.0, 0.0, 0.0, 0.0, 0.0, 0.0, 0.0, 0.0, 1.724383229906943E9, 0.0, 2024-08-23 11:20:29.906
37.0, 187500.0, 103362.22241666586, 115916.57142836708, 113861.79791233515, 114362.02995324493, 110734.49829035978, 112464.81388387847, 139515.6326312581, 0.044, 0.202, 0.986, 192.0, 0.0, 0.0, 0.0, 0.0, 0.0, 0.0, 0.0, 0.0, 0.0, 1.72438322991098E9, 0.0, 2024-08-23 11:20:29.910
38.0, 187500.0, 103388.17279197846, 115942.72296937979, 113875.94656657537, 114366.12032248024, 110744.82479629813, 112494.63111098185, 139552.71417530946, 0.044, 0.20400000000000001, 0.986, 192.0, 1.0, 96.0, 6.0, 96.0, 30.0, 208.0, 0.0, 0.0, 0.0, 1.72438322991493E9, 0.0, 2024-08-23 11:20:29.914
39.0, 187500.0, 103432.27278378878, 115983.71606871083, 113935.46926205985, 114412.16491605819, 110823.70410248092, 112525.67768403026, 139589.32633272724, 0.044, 0.20400000000000001, 0.986, 192.0, 0.0, 0.0, 0.0, 0.0, 0.0, 0.0, 0.0, 0.0, 0.0, 1.7243832299179287E9, 0.0, 2024-08-23 11:20:29.917
40.0, 187500.0, 103409.8539841001, 115962.54896671165, 113922.99698865379, 114397.5021716955, 110815.72452971037, 112501.22487559616, 139561.96779751393, 0.044, 0.20400000000000001, 0.986, 192.0, 0.0, 0.0, 0.0, 0.0, 0.0, 0.0, 0.0, 0.0, 0.0, 1.7243832299219403E9, 0.0, 2024-08-23 11:20:29.921
41.0, 187500.0, 103371.6995563149, 115924.79687032664, 113873.28670898518, 114355.27972641942, 110755.53128189222, 112468.18899729122, 139524.19334938447, 0.044, 0.20400000000000001, 0.986, 192.0, 0.0, 0.0, 0.0, 0.0, 0.0, 0.0, 0.0, 0.0, 0.0, 1.7243832299259453E9, 0.0, 2024-08-23 11:20:29.925
42.0, 187500.0, 103372.9959574933, 115926.18267848286, 113862.06613326861, 114351.27876416192, 110744.2883544312, 112476.07916308394, 139526.27206161883, 0.044, 0.20400000000000001, 0.986, 192.0, 0.0, 0.0, 0.0, 0.0, 0.0, 0.0, 0.0, 0.0, 0.0, 1.7243832299299965E9, 0.0, 2024-08-23 11:20:29.929
43.0, 187500.0, 103404.71308287539, 115957.89980386494, 113889.93875860439, 114377.92204355265, 110770.12697102154, 112509.31620708898, 139557.16217245607, 0.044, 0.20400000000000001, 0.986, 192.0, 0.0, 0.0, 0.0, 0.0, 0.0, 0.0, 0.0, 0.0, 0.0, 1.7243832299350617E9, 0.0, 2024-08-23 11:20:29.935
44.0, 187500.0, 103437.27957454677, 115988.36523155753, 113934.35167483707, 114406.28640726644, 110829.62731476156, 112533.85842250091, 139587.76171061536, 0.044, 0.20400000000000001, 0.986, 192.0, 0.0, 0.0, 0.0, 0.0, 0.0, 0.0, 0.0, 0.0, 0.0, 1.724383229939014E9, 0.0, 2024-08-23 11:20:29.939
45.0, 187500.0, 103407.41764395448, 115957.85510037604, 113909.76475593624, 114374.9492615401, 110807.94612263991, 112502.81184945248, 139560.22436144642, 0.044, 0.20400000000000001, 0.986, 192.0, 0.0, 0.0, 0.0, 0.0, 0.0, 0.0, 0.0, 0.0, 0.0, 1.7243832299429975E9, 0.0, 2024-08-23 11:20:29.942
46.0, 187500.0, 103377.153381962, 115927.83670757255, 113870.71625837282, 114346.22726991502, 110762.7955988402, 112479.7001456857, 139538.25259664687, 0.044, 0.20400000000000001, 0.986, 192.0, 0.0, 0.0, 0.0, 0.0, 0.0, 0.0, 0.0, 0.0, 0.0, 1.7243832299459767E9, 0.0, 2024-08-23 11:20:29.945
47.0, 187500.0, 103375.83462903913, 115928.2613907172, 113856.9252320439, 114339.76761576744, 110746.65763934347, 112485.62335796635, 139549.5849310857, 0.044, 0.20400000000000001, 0.986, 192.0, 0.0, 0.0, 0.0, 0.0, 0.0, 0.0, 0.0, 0.0, 0.0, 1.7243832299500003E9, 0.0, 2024-08-23 11:20:29.950
48.0, 187500.0, 103392.5537338917, 115948.75794038273, 113872.54910141816, 114349.91530775015, 110762.5944331401, 112508.10921288839, 139566.8404778052, 0.05, 0.202, 0.988, 192.0, 1.0, 144.0, 6.0, 80.0, 30.0, 224.0, 0.0, 0.0, 0.0, 1.7243832299540217E9, 0.0, 2024-08-23 11:20:29.954
49.0, 187500.0, 103426.14840580802, 115981.5255977542, 113924.91923867694, 114383.53233141093, 110825.33577982614, 112539.33459989246, 139596.83651886423, 0.05, 0.202, 0.988, 192.0, 0.0, 0.0, 0.0, 0.0, 0.0, 0.0, 0.0, 0.0, 0.0, 1.724383229958052E9, 0.0, 2024-08-23 11:20:29.958
50.0, 187500.0, 103422.10274006161, 115974.59655697306, 113929.7919189682, 114388.53912216892, 110825.53694552624, 112527.53287882006, 139585.28066698083, 0.05, 0.202, 0.988, 192.0, 0.0, 0.0, 0.0, 0.0, 0.0, 0.0, 0.0, 0.0, 0.0, 1.7243832299620364E9, 0.0, 2024-08-23 11:20:29.962
51.0, 187500.0, 103401.98617005184, 115954.79291138565, 113900.51113373175, 114368.6907730926, 110791.13761080953, 112505.69522448722, 139564.2476754484, 0.05, 0.202, 0.988, 192.0, 0.0, 0.0, 0.0, 0.0, 0.0, 0.0, 0.0, 0.0, 0.0, 1.7243832299670885E9, 0.0, 2024-08-23 11:20:29.967
52.0, 187500.0, 103374.51587611627, 115932.12824250797, 113868.30226997165, 114346.1378629372, 110748.24461319979, 112482.4941137426, 139533.29050937778, 0.05, 0.202, 0.988, 192.0, 0.0, 0.0, 0.0, 0.0, 0.0, 0.0, 0.0, 0.0, 0.0, 1.7243832299711666E9, 0.0, 2024-08-23 11:20:29.971
53.0, 187500.0, 103390.49737340181, 115950.74724563924, 113884.21671202383, 114368.26608994795, 110761.63330812853, 112504.57763726446, 139550.3895938861, 0.05, 0.202, 0.988, 192.0, 0.0, 0.0, 0.0, 0.0, 0.0, 0.0, 0.0, 0.0, 0.0, 1.7243832299740467E9, 0.0, 2024-08-23 11:20:29.974
54.0, 187500.0, 103448.54485375225, 116007.63243527799, 113956.61401231457, 114420.99385511802, 110842.65838177901, 112558.065361746, 139607.4535974805, 0.05, 0.202, 0.988, 192.0, 0.0, 0.0, 0.0, 0.0, 0.0, 0.0, 0.0, 0.0, 0.0, 1.7243832299781425E9, 0.0, 2024-08-23 11:20:29.978
55.0, 187500.0, 103444.49918800584, 116000.79280147467, 113957.17280592595, 114405.9511310996, 110846.14525391403, 112546.2636406736, 139605.82192013526, 0.05, 0.202, 0.988, 192.0, 0.0, 0.0, 0.0, 0.0, 0.0, 0.0, 0.0, 0.0, 0.0, 1.7243832299821572E9, 0.0, 2024-08-23 11:20:29.982
56.0, 187500.0, 103409.406949211, 115966.41581850241, 113921.54412526419, 114384.11347676677, 110800.16771556946, 112508.17626812177, 139570.3049981958, 0.05, 0.202, 0.988, 192.0, 0.0, 0.0, 0.0, 0.0, 0.0, 0.0, 0.0, 0.0, 0.0, 1.724383229986225E9, 0.0, 2024-08-23 11:20:29.986
57.0, 187500.0, 103381.75784131979, 115939.77253911168, 113886.92127310293, 114369.9424707821, 110758.23584297132, 112485.3998405218, 139541.31478563725, 0.05, 0.202, 0.988, 192.0, 0.0, 0.0, 0.0, 0.0, 0.0, 0.0, 0.0, 0.0, 0.0, 1.72438322999014E9, 0.0, 2024-08-23 11:20:29.990
58.0, 187500.0, 103381.6013791086, 115942.20887925732, 113885.24489226878, 114366.90263353619, 110758.72758134933, 112493.89350341482, 139545.27104440585, 0.046, 0.198, 0.988, 192.0, 1.0, 112.0, 6.0, 48.0, 30.0, 224.0, 0.0, 0.0, 0.0, 1.7243832299951456E9, 0.0, 2024-08-23 11:20:29.995
59.0, 187500.0, 103455.38448755557, 116014.87440048152, 113966.09115196361, 114433.68964596864, 110842.54662305673, 112558.4676931462, 139616.61781270718, 0.046, 0.198, 0.988, 192.0, 0.0, 0.0, 0.0, 0.0, 0.0, 0.0, 0.0, 0.0, 0.0, 1.7243832299991333E9, 0.0, 2024-08-23 11:20:29.999
60.0, 187500.0, 103481.51367682383, 116038.18726994841, 113997.69651862342, 114452.12983514427, 110880.58929211966, 112578.96424281172, 139642.3670223197, 0.046, 0.198, 0.988, 192.0, 0.0, 0.0, 0.0, 0.0, 0.0, 0.0, 0.0, 0.0, 0.0, 1.7243832300021517E9, 0.0, 2024-08-23 11:20:30.002
61.0, 187500.0, 103440.20765307042, 115995.56249327213, 113956.144625681, 114424.63718946424, 110837.85275672111, 112537.05472195802, 139598.04351306483, 0.046, 0.198, 0.988, 192.0, 0.0, 0.0, 0.0, 0.0, 0.0, 0.0, 0.0, 0.0, 0.0, 1.724383230006194E9, 0.0, 2024-08-23 11:20:30.006
62.0, 187500.0, 103384.79767856571, 115938.27497223318, 113891.4810289718, 114371.23887196051, 110772.20568325587, 112484.93045388824, 139537.8279135022, 0.046, 0.198, 0.988, 192.0, 0.0, 0.0, 0.0, 0.0, 0.0, 0.0, 0.0, 0.0, 0.0, 1.7243832300102365E9, 0.0, 2024-08-23 11:20:30.010
63.0, 187500.0, 103373.42064063795, 115925.7132918493, 113873.75609561874, 114359.77242705494, 110753.09494174659, 112476.68266018423, 139530.89887272107, 0.046, 0.198, 0.988, 192.0, 0.0, 0.0, 0.0, 0.0, 0.0, 0.0, 0.0, 0.0, 0.0, 1.7243832300141554E9, 0.0, 2024-08-23 11:20:30.014
64.0, 187500.0, 103448.09781886314, 116000.14460088547, 113954.82587275814, 114429.01813137748, 110837.85275672111, 112548.65527733033, 139602.51386195587, 0.046, 0.198, 0.988, 192.0, 0.0, 0.0, 0.0, 0.0, 0.0, 0.0, 0.0, 0.0, 0.0, 1.7243832300182128E9, 0.0, 2024-08-23 11:20:30.018
65.0, 187500.0, 103500.69147356648, 116050.97246777684, 114008.82768736217, 114471.2182249091, 110894.06739402622, 112596.48801046467, 139655.0628131703, 0.046, 0.198, 0.988, 192.0, 0.0, 0.0, 0.0, 0.0, 0.0, 0.0, 0.0, 0.0, 0.0, 1.724383230023157E9, 0.0, 2024-08-23 11:20:30.023
66.0, 187500.0, 103469.55549354023, 116021.26699939574, 113974.36129741208, 114438.42821579316, 110858.68458255347, 112569.4200479293, 139625.446751767, 0.046, 0.198, 0.988, 192.0, 0.0, 0.0, 0.0, 0.0, 0.0, 0.0, 0.0, 0.0, 0.0, 1.7243832300271811E9, 0.0, 2024-08-23 11:20:30.027
67.0, 187500.0, 103392.59843738061, 115950.18845202785, 113898.65593894196, 114371.08240974933, 110778.55357868118, 112500.7554889626, 139548.4449921185, 0.046, 0.198, 0.988, 192.0, 0.0, 0.0, 0.0, 0.0, 0.0, 0.0, 0.0, 0.0, 0.0, 1.7243832300302832E9, 0.0, 2024-08-23 11:20:30.030
68.0, 187500.0, 103364.21172192237, 115926.78617558315, 113871.31975547312, 114352.28459266241, 110756.9394417929, 112479.92366313025, 139522.69578250597, 0.042, 0.20400000000000001, 0.99, 192.0, 1.0, 80.0, 6.0, 96.0, 30.0, 240.0, 0.0, 0.0, 0.0, 1.7243832300341725E9, 0.0, 2024-08-23 11:20:30.034
69.0, 187500.0, 103466.40389757203, 116025.91616224244, 113979.27868119226, 114452.84509096685, 110874.57667286119, 112575.09739102094, 139622.83159766576, 0.042, 0.20400000000000001, 0.99, 192.0, 0.0, 0.0, 0.0, 0.0, 0.0, 0.0, 0.0, 0.0, 0.0, 1.7243832300381615E9, 0.0, 2024-08-23 11:20:30.038
70.0, 187500.0, 103518.61757261964, 116075.20175876639, 114034.2192690634, 114497.66033859973, 110925.96333336394, 112620.80670843205, 139678.0180547259, 0.042, 0.20400000000000001, 0.99, 192.0, 0.0, 0.0, 0.0, 0.0, 0.0, 0.0, 0.0, 0.0, 0.0, 1.7243832300421557E9, 0.0, 2024-08-23 11:20:30.042
71.0, 187500.0, 103477.0209761883, 116033.20283093487, 113988.77817258575, 114453.09096015585, 110872.7214780714, 112580.21594050122, 139646.43503981055, 0.042, 0.20400000000000001, 0.99, 192.0, 0.0, 0.0, 0.0, 0.0, 0.0, 0.0, 0.0, 0.0, 0.0, 1.7243832300461829E9, 0.0, 2024-08-23 11:20:30.046
72.0, 187500.0, 103404.9589520644, 115961.54313821116, 113910.77058443673, 114380.4477906761, 110787.36016599658, 112513.6077420244, 139573.1436697416, 0.042, 0.20400000000000001, 0.99, 192.0, 0.0, 0.0, 0.0, 0.0, 0.0, 0.0, 0.0, 0.0, 0.0, 1.7243832300512884E9, 0.0, 2024-08-23 11:20:30.051
73.0, 187500.0, 103363.56352133317, 115919.92419003538, 113865.44124668137, 114339.07471168933, 110744.98125850932, 112475.58742470593, 139530.16126515405, 0.042, 0.20400000000000001, 0.99, 192.0, 0.0, 0.0, 0.0, 0.0, 0.0, 0.0, 0.0, 0.0, 0.0, 1.7243832300552163E9, 0.0, 2024-08-23 11:20:30.055
74.0, 187500.0, 103443.40395252753, 115997.6859089954, 113952.30012563469, 114417.19405856062, 110837.74099799884, 112549.14701570834, 139604.88314686815, 0.042, 0.20400000000000001, 0.99, 192.0, 0.0, 0.0, 0.0, 0.0, 0.0, 0.0, 0.0, 0.0, 0.0, 1.7243832300582144E9, 0.0, 2024-08-23 11:20:30.058
75.0, 187500.0, 103495.59527583067, 116048.20085146438, 114008.78298387326, 114465.54088181745, 110897.1742865055, 112597.65030117636, 139654.1687433921, 0.042, 0.20400000000000001, 0.99, 192.0, 0.0, 0.0, 0.0, 0.0, 0.0, 0.0, 0.0, 0.0, 0.0, 1.7243832300622516E9, 0.0, 2024-08-23 11:20:30.062
76.0, 187500.0, 103470.18134238498, 116023.01043546325, 113978.83164630314, 114443.92674492917, 110860.13744594305, 112572.79516134204, 139628.8665686687, 0.042, 0.20400000000000001, 0.99, 192.0, 0.0, 0.0, 0.0, 0.0, 0.0, 0.0, 0.0, 0.0, 0.0, 1.724383230066265E9, 0.0, 2024-08-23 11:20:30.066
77.0, 187500.0, 103384.68591984344, 115943.2147077578, 113891.54808420516, 114365.02508700194, 110775.91607283546, 112500.06258488448, 139544.1311054386, 0.042, 0.20400000000000001, 0.99, 192.0, 0.0, 0.0, 0.0, 0.0, 0.0, 0.0, 0.0, 0.0, 0.0, 1.7243832300702493E9, 0.0, 2024-08-23 11:20:30.070
78.0, 187500.0, 103365.32930914513, 115922.62875111446, 113870.58214790608, 114354.07273221883, 110753.25140395778, 112477.73319217363, 139529.73658200938, 0.038, 0.20400000000000001, 0.992, 192.0, 1.0, 48.0, 6.0, 96.0, 31.0, 0.0, 0.0, 0.0, 0.0, 1.7243832300742817E9, 0.0, 2024-08-23 11:20:30.074
79.0, 187500.0, 103453.68575497696, 116008.54885680067, 113967.47696011985, 114431.34271280083, 110853.02959120627, 112560.83697805846, 139619.72470518647, 0.038, 0.20400000000000001, 0.992, 192.0, 0.0, 0.0, 0.0, 0.0, 0.0, 0.0, 0.0, 0.0, 0.0, 1.7243832300782635E9, 0.0, 2024-08-23 11:20:30.078
80.0, 187500.0, 103487.30277863775, 116040.80242404967, 114007.93361758396, 114456.17550089068, 110895.22968473789, 112592.55410344055, 139652.13473464665, 0.038, 0.20400000000000001, 0.992, 192.0, 0.0, 0.0, 0.0, 0.0, 0.0, 0.0, 0.0, 0.0, 0.0, 1.724383230083227E9, 0.0, 2024-08-23 11:20:30.083
81.0, 187500.0, 103460.30187133573, 116012.2815981247, 113978.94340502542, 114446.27367809699, 110859.51159709832, 112560.65816410282, 139618.71887668598, 0.038, 0.20400000000000001, 0.992, 192.0, 0.0, 0.0, 0.0, 0.0, 0.0, 0.0, 0.0, 0.0, 0.0, 1.7243832300863836E9, 0.0, 2024-08-23 11:20:30.086
82.0, 187500.0, 103399.7062921174, 115954.122359052, 113908.58011348011, 114385.92396806765, 110777.68186064743, 112508.01980591058, 139559.91143702407, 0.038, 0.20400000000000001, 0.992, 192.0, 0.0, 0.0, 0.0, 0.0, 0.0, 0.0, 0.0, 0.0, 0.0, 1.7243832300902772E9, 0.0, 2024-08-23 11:20:30.090
83.0, 187500.0, 103369.95612024739, 115924.93098079336, 113870.55979616163, 114352.59751708478, 110736.26407817175, 112482.38235502034, 139534.31868962274, 0.038, 0.20400000000000001, 0.992, 192.0, 0.0, 0.0, 0.0, 0.0, 0.0, 0.0, 0.0, 0.0, 0.0, 1.724383230094282E9, 0.0, 2024-08-23 11:20:30.094
84.0, 187500.0, 103482.05011869075, 116035.92974375842, 113993.13676275454, 114471.6205563093, 110881.88569329807, 112583.34518472495, 139648.08906890024, 0.038, 0.20400000000000001, 0.992, 192.0, 0.0, 0.0, 0.0, 0.0, 0.0, 0.0, 0.0, 0.0, 0.0, 1.7243832300983012E9, 0.0, 2024-08-23 11:20:30.098
85.0, 187500.0, 103524.65254362256, 116077.68280240093, 114046.91505991401, 114516.34639696436, 110941.16251959355, 112625.58998174549, 139687.3163804193, 0.038, 0.20400000000000001, 0.992, 192.0, 0.0, 0.0, 0.0, 0.0, 0.0, 0.0, 0.0, 0.0, 0.0, 1.7243832301023028E9, 0.0, 2024-08-23 11:20:30.102
86.0, 187500.0, 103468.72847899538, 116023.50217384126, 113986.83357081814, 114459.61766953679, 110875.64955659505, 112577.39962069984, 139630.92292915858, 0.038, 0.20400000000000001, 0.992, 192.0, 0.0, 0.0, 0.0, 0.0, 0.0, 0.0, 0.0, 0.0, 0.0, 1.7243832301062677E9, 0.0, 2024-08-23 11:20:30.106
87.0, 187500.0, 103402.72377761887, 115960.13497831047, 113917.11847986204, 114401.45843046409, 110800.45828824739, 112517.96633219319, 139561.25254169138, 0.038, 0.20400000000000001, 0.992, 192.0, 0.0, 0.0, 0.0, 0.0, 0.0, 0.0, 0.0, 0.0, 0.0, 1.7243832301112945E9, 0.0, 2024-08-23 11:20:30.111
88.0, 187500.0, 103379.65677734099, 115939.50431817822, 113889.1787992929, 114378.21261623056, 110769.7916948547, 112499.97317790666, 139543.6393670606, 0.036000000000000004, 0.20400000000000001, 0.988, 192.0, 1.0, 32.0, 6.0, 96.0, 30.0, 224.0, 0.0, 0.0, 0.0, 1.7243832301142747E9, 0.0, 2024-08-23 11:20:30.114
89.0, 187500.0, 103484.5311623253, 116043.97637176233, 113998.88116107955, 114477.61082382331, 110891.76516434732, 112597.60559768745, 139647.97731017796, 0.036000000000000004, 0.20400000000000001, 0.988, 192.0, 0.0, 0.0, 0.0, 0.0, 0.0, 0.0, 0.0, 0.0, 0.0, 1.724383230118282E9, 0.0, 2024-08-23 11:20:30.118
90.0, 187500.0, 103533.99557280488, 116090.35624150709, 114054.51465302882, 114519.98973131058, 110947.35395280767, 112640.69976099728, 139692.25611594392, 0.036000000000000004, 0.20400000000000001, 0.988, 192.0, 0.0, 0.0, 0.0, 0.0, 0.0, 0.0, 0.0, 0.0, 0.0, 1.7243832301223485E9, 0.0, 2024-08-23 11:20:30.122
91.0, 187500.0, 103491.95194148445, 116046.01038050777, 114007.37482397257, 114478.5719488349, 110892.10044051414, 112598.6784814213, 139659.01907193888, 0.036000000000000004, 0.20400000000000001, 0.988, 192.0, 0.0, 0.0, 0.0, 0.0, 0.0, 0.0, 0.0, 0.0, 0.0, 1.72438323012632E9, 0.0, 2024-08-23 11:20:30.126
92.0, 187500.0, 103430.70816167691, 115986.30887106764, 113935.26809635975, 114419.65275045071, 110818.16086985599, 112539.80398652602, 139600.7480741439, 0.036000000000000004, 0.20400000000000001, 0.988, 192.0, 0.0, 0.0, 0.0, 0.0, 0.0, 0.0, 0.0, 0.0, 0.0, 1.724383230130303E9, 0.0, 2024-08-23 11:20:30.130
93.0, 187500.0, 103405.87537358707, 115965.61115570202, 113907.70839544636, 114396.60810191729, 110787.82955263014, 112519.7097682607, 139574.7976988313, 0.036000000000000004, 0.20400000000000001, 0.988, 192.0, 0.0, 0.0, 0.0, 0.0, 0.0, 0.0, 0.0, 0.0, 0.0, 1.7243832301353736E9, 0.0, 2024-08-23 11:20:30.135
94.0, 187500.0, 103478.0268046888, 116035.08037746912, 113989.51578015278, 114465.16090216172, 110877.48239964037, 112582.33935622447, 139641.94233917503, 0.036000000000000004, 0.20400000000000001, 0.988, 192.0, 0.0, 0.0, 0.0, 0.0, 0.0, 0.0, 0.0, 0.0, 0.0, 1.7243832301384227E9, 0.0, 2024-08-23 11:20:30.138
95.0, 187500.0, 103515.55538362925, 116070.5972994086, 114030.15125157253, 114493.99465250906, 110919.39192049408, 112618.05744386405, 139678.9121245041, 0.036000000000000004, 0.20400000000000001, 0.988, 192.0, 0.0, 0.0, 0.0, 0.0, 0.0, 0.0, 0.0, 0.0, 0.0, 1.7243832301413708E9, 0.0, 2024-08-23 11:20:30.141
96.0, 187500.0, 103460.48068529138, 116016.50607782675, 113966.2029106859, 114429.26400056649, 110853.43192260647, 112572.07990551948, 139628.68775471303, 0.036000000000000004, 0.20400000000000001, 0.988, 192.0, 0.0, 0.0, 0.0, 0.0, 0.0, 0.0, 0.0, 0.0, 0.0, 1.7243832301454253E9, 0.0, 2024-08-23 11:20:30.145
97.0, 187500.0, 103398.74516710582, 115954.70350440784, 113897.00190985226, 114369.0931044928, 110785.43791597342, 112515.08295715845, 139567.06399524974, 0.036000000000000004, 0.20400000000000001, 0.988, 192.0, 0.0, 0.0, 0.0, 0.0, 0.0, 0.0, 0.0, 0.0, 0.0, 1.7243832301503892E9, 0.0, 2024-08-23 11:20:30.150
98.0, 187500.0, 103414.27962950226, 115971.04262960466, 113913.11751760454, 114395.57992167234, 110799.8547911471, 112530.05862594351, 139577.72577735494, 0.038, 0.2, 0.99, 192.0, 1.0, 48.0, 6.0, 64.0, 30.0, 240.0, 0.0, 0.0, 0.0, 1.724383230154372E9, 0.0, 2024-08-23 11:20:30.154
99.0, 187500.0, 103517.99172377489, 116071.51372093127, 114028.40781550501, 114510.84786782836, 110918.05081582676, 112620.67259796531, 139676.49813610295, 0.038, 0.2, 0.99, 192.0, 0.0, 0.0, 0.0, 0.0, 0.0, 0.0, 0.0, 0.0, 0.0, 1.7243832301583593E9, 0.0, 2024-08-23 11:20:30.158
100.0, 187500.0, 103546.75841888886, 116098.157000322, 114060.01318216482, 114526.22586801361, 110949.87969993112, 112647.89702271188, 139704.95190679454, 0.038, 0.2, 0.99, 192.0, 0.0, 0.0, 0.0, 0.0, 0.0, 0.0, 0.0, 0.0, 0.0, 1.7243832301633613E9, 0.0, 2024-08-23 11:20:30.163
101.0, 187500.0, 103486.14048792607, 116038.32138041513, 113988.37584118555, 114450.9675444326, 110872.49796062685, 112591.63768191787, 139645.45156305452, 0.038, 0.2, 0.99, 192.0, 0.0, 0.0, 0.0, 0.0, 0.0, 0.0, 0.0, 0.0, 0.0, 1.7243832301664147E9, 0.0, 2024-08-23 11:20:30.166
102.0, 187500.0, 103424.60613544061, 115979.64805121995, 113920.1359653635, 114398.48564845153, 110794.6021312001, 112532.51731783358, 139588.87929783814, 0.038, 0.2, 0.99, 192.0, 0.0, 0.0, 0.0, 0.0, 0.0, 0.0, 0.0, 0.0, 0.0, 1.7243832301704273E9, 0.0, 2024-08-23 11:20:30.170
103.0, 187500.0, 103424.98611509636, 115981.5255977542, 113923.15345086498, 114413.12604106976, 110802.93933188193, 112535.02071321258, 139590.04158854982, 0.038, 0.2, 0.99, 192.0, 0.0, 0.0, 0.0, 0.0, 0.0, 0.0, 0.0, 0.0, 0.0, 1.724383230174408E9, 0.0, 2024-08-23 11:20:30.174
104.0, 187500.0, 103495.17059268602, 116050.16780497645, 114000.89281808054, 114475.04037321096, 110894.51442891532, 112601.13717331138, 139655.39808933713, 0.038, 0.2, 0.99, 192.0, 0.0, 0.0, 0.0, 0.0, 0.0, 0.0, 0.0, 0.0, 0.0, 1.7243832301794503E9, 0.0, 2024-08-23 11:20:30.179
105.0, 187500.0, 103523.95963954445, 116075.82760761114, 114029.10071958313, 114490.66424258522, 110915.77093789232, 112623.7794904446, 139680.58850533827, 0.038, 0.2, 0.99, 192.0, 0.0, 0.0, 0.0, 0.0, 0.0, 0.0, 0.0, 0.0, 0.0, 1.7243832301823993E9, 0.0, 2024-08-23 11:20:30.182
106.0, 187500.0, 103486.98985421537, 116044.06577874014, 113983.61491961658, 114446.3630850748, 110871.31331817071, 112592.88937960737, 139643.39520256463, 0.038, 0.2, 0.99, 192.0, 0.0, 0.0, 0.0, 0.0, 0.0, 0.0, 0.0, 0.0, 0.0, 1.724383230185554E9, 0.0, 2024-08-23 11:20:30.185
107.0, 187500.0, 103457.75377246783, 116020.10470868406, 113949.08147443313, 114431.11919535628, 110838.0092189323, 112566.93900429476, 139611.07458008226, 0.038, 0.2, 0.99, 192.0, 0.0, 0.0, 0.0, 0.0, 0.0, 0.0, 0.0, 0.0, 0.0, 1.7243832301904008E9, 0.0, 2024-08-23 11:20:30.190
108.0, 187500.0, 103454.2669003328, 116006.40308933296, 113934.642247515, 114427.20764007661, 110815.0092738878, 112554.31026867751, 139603.74320790093, 0.048, 0.196, 0.992, 192.0, 1.0, 128.0, 6.0, 32.0, 31.0, 0.0, 0.0, 0.0, 0.0, 1.724383230194449E9, 0.0, 2024-08-23 11:20:30.194
109.0, 187500.0, 103525.99364828988, 116067.1998342514, 114017.96955084438, 114495.60397810984, 110910.3841674786, 112615.03995836258, 139675.8722872582, 0.048, 0.196, 0.992, 192.0, 0.0, 0.0, 0.0, 0.0, 0.0, 0.0, 0.0, 0.0, 0.0, 1.7243832301985743E9, 0.0, 2024-08-23 11:20:30.198
110.0, 187500.0, 103545.26085201035, 116084.2989187597, 114050.31252507122, 114522.24725750057, 110939.21791782594, 112629.12155736942, 139689.5292031204, 0.048, 0.196, 0.992, 192.0, 0.0, 0.0, 0.0, 0.0, 0.0, 0.0, 0.0, 0.0, 0.0, 1.724383230202476E9, 0.0, 2024-08-23 11:20:30.202
111.0, 187500.0, 103514.97423827341, 116058.05797076916, 114018.39423398903, 114492.36297516382, 110902.20342900795, 112606.50159198066, 139661.61187429572, 0.048, 0.196, 0.992, 192.0, 0.0, 0.0, 0.0, 0.0, 0.0, 0.0, 0.0, 0.0, 0.0, 1.7243832302075744E9, 0.0, 2024-08-23 11:20:30.207
112.0, 187500.0, 103467.85676096163, 116016.12609817102, 113966.18055894144, 114444.262021096, 110844.02183819078, 112571.40935318582, 139619.9035191421, 0.048, 0.196, 0.992, 192.0, 0.0, 0.0, 0.0, 0.0, 0.0, 0.0, 0.0, 0.0, 0.0, 1.7243832302104511E9, 0.0, 2024-08-23 11:20:30.210
113.0, 187500.0, 103463.22994985938, 116009.06294692314, 113955.80934951418, 114441.42334955018, 110834.54469854174, 112568.7718473401, 139625.98319363393, 0.048, 0.196, 0.992, 192.0, 0.0, 0.0, 0.0, 0.0, 0.0, 0.0, 0.0, 0.0, 0.0, 1.7243832302134404E9, 0.0, 2024-08-23 11:20:30.213
114.0, 187500.0, 103524.49608141137, 116068.20566275188, 114028.5642777162, 114502.08598400188, 110919.36956874962, 112625.0311881341, 139683.29306641736, 0.048, 0.196, 0.992, 192.0, 0.0, 0.0, 0.0, 0.0, 0.0, 0.0, 0.0, 0.0, 0.0, 1.7243832302186117E9, 0.0, 2024-08-23 11:20:30.218
115.0, 187500.0, 103531.13454951461, 116072.78777036522, 114042.08708311166, 114507.00336778205, 110935.19460382398, 112629.3897783029, 139687.4728426305, 0.048, 0.196, 0.992, 192.0, 0.0, 0.0, 0.0, 0.0, 0.0, 0.0, 0.0, 0.0, 0.0, 1.7243832302224915E9, 0.0, 2024-08-23 11:20:30.222
116.0, 187500.0, 103486.65457804855, 116030.7441390448, 113990.63336737554, 114460.26587012601, 110878.3764694186, 112588.68725164978, 139646.72561248846, 0.048, 0.196, 0.992, 192.0, 0.0, 0.0, 0.0, 0.0, 0.0, 0.0, 0.0, 0.0, 0.0, 1.7243832302264879E9, 0.0, 2024-08-23 11:20:30.226
117.0, 187500.0, 103427.19893779742, 115975.24475756226, 113925.20981135486, 114401.07845080835, 110806.69442495042, 112538.21701266969, 139593.14848102911, 0.048, 0.196, 0.992, 192.0, 0.0, 0.0, 0.0, 0.0, 0.0, 0.0, 0.0, 0.0, 0.0, 1.7243832302304833E9, 0.0, 2024-08-23 11:20:30.230
118.0, 187500.0, 103417.63239117055, 115965.23117604628, 113911.53054374822, 114391.62366290376, 110785.88495086253, 112531.69030328875, 139586.95704781497, 0.044, 0.2, 0.982, 192.0, 1.0, 96.0, 6.0, 64.0, 30.0, 176.0, 0.0, 0.0, 0.0, 1.724383230234499E9, 0.0, 2024-08-23 11:20:30.234
119.0, 187500.0, 103497.6292845761, 116040.60125834958, 113998.0541465347, 114464.2668323835, 110885.12669624409, 112602.45592623424, 139656.67213877107, 0.044, 0.2, 0.982, 192.0, 0.0, 0.0, 0.0, 0.0, 0.0, 0.0, 0.0, 0.0, 0.0, 1.7243832302385497E9, 0.0, 2024-08-23 11:20:30.238
120.0, 187500.0, 103541.90809034207, 116082.28726175873, 114050.15606286003, 114512.9265800627, 110944.76115045085, 112634.64243824988, 139700.95094453703, 0.044, 0.2, 0.982, 192.0, 0.0, 0.0, 0.0, 0.0, 0.0, 0.0, 0.0, 0.0, 0.0, 1.724383230241533E9, 0.0, 2024-08-23 11:20:30.241
121.0, 187500.0, 103505.11711896863, 116047.642057853, 114009.408832718, 114476.7167540451, 110893.91093181503, 112601.80772564503, 139669.77026102188, 0.044, 0.2, 0.982, 192.0, 0.0, 0.0, 0.0, 0.0, 0.0, 0.0, 0.0, 0.0, 0.0, 1.7243832302465372E9, 0.0, 2024-08-23 11:20:30.246
122.0, 187500.0, 103456.05503988922, 116001.66451950843, 113948.99206745531, 114418.73632892805, 110825.11226238159, 112563.29566994855, 139622.5633767323, 0.044, 0.2, 0.982, 192.0, 0.0, 0.0, 0.0, 0.0, 0.0, 0.0, 0.0, 0.0, 0.0, 1.7243832302505977E9, 0.0, 2024-08-23 11:20:30.250
123.0, 187500.0, 103463.90050219304, 116009.42057483442, 113949.7967302557, 114426.17945983166, 110828.01798916078, 112571.38700144137, 139623.8150744218, 0.044, 0.2, 0.982, 192.0, 0.0, 0.0, 0.0, 0.0, 0.0, 0.0, 0.0, 0.0, 0.0, 1.7243832302545605E9, 0.0, 2024-08-23 11:20:30.254
124.0, 187500.0, 103519.91397379804, 116065.0987702726, 114018.55069620023, 114497.16860022172, 110903.45512669744, 112617.78922293059, 139669.21146741053, 0.044, 0.2, 0.982, 192.0, 0.0, 0.0, 0.0, 0.0, 0.0, 0.0, 0.0, 0.0, 0.0, 1.7243832302586224E9, 0.0, 2024-08-23 11:20:30.258
125.0, 187500.0, 103549.37357299014, 116093.93252061994, 114053.03943789477, 114527.96930408113, 110945.1411301066, 112641.32560984202, 139699.69924684754, 0.044, 0.2, 0.982, 192.0, 0.0, 0.0, 0.0, 0.0, 0.0, 0.0, 0.0, 0.0, 0.0, 1.724383230261547E9, 0.0, 2024-08-23 11:20:30.261
126.0, 187500.0, 103517.32117144123, 116064.31645921666, 114022.93163811347, 114503.82942006939, 110916.5308972038, 112613.4753362507, 139669.85966799973, 0.044, 0.2, 0.982, 192.0, 0.0, 0.0, 0.0, 0.0, 0.0, 0.0, 0.0, 0.0, 0.0, 1.7243832302655847E9, 0.0, 2024-08-23 11:20:30.265
127.0, 187500.0, 103479.27850237829, 116028.46426111035, 113973.06489623367, 114460.95877420412, 110854.72832378488, 112582.42876320229, 139637.44963853952, 0.044, 0.2, 0.982, 192.0, 0.0, 0.0, 0.0, 0.0, 0.0, 0.0, 0.0, 0.0, 0.0, 1.7243832302696223E9, 0.0, 2024-08-23 11:20:30.269
128.0, 187500.0, 103476.9762726994, 116024.97738897531, 113961.73256179484, 114450.45345431012, 110840.4679108224, 112580.95354806824, 139642.3223188308, 0.044, 0.202, 0.986, 192.0, 1.0, 96.0, 6.0, 80.0, 30.0, 208.0, 0.0, 0.0, 0.0, 1.7243832302736435E9, 0.0, 2024-08-23 11:20:30.273
129.0, 187500.0, 103559.3424510172, 116103.02968061325, 114052.74886521684, 114537.69231291919, 110946.48223477391, 112649.46164482375, 139717.20066275605, 0.044, 0.202, 0.986, 192.0, 0.0, 0.0, 0.0, 0.0, 0.0, 0.0, 0.0, 0.0, 0.0, 1.7243832302785995E9, 0.0, 2024-08-23 11:20:30.278
130.0, 187500.0, 103586.43276529704, 116127.99657916983, 114083.95190047646, 114565.63199348832, 110984.32373813675, 112668.23711016621, 139738.61363394425, 0.044, 0.202, 0.986, 192.0, 0.0, 0.0, 0.0, 0.0, 0.0, 0.0, 0.0, 0.0, 0.0, 1.7243832302825933E9, 0.0, 2024-08-23 11:20:30.282
131.0, 187500.0, 103549.28416601231, 116092.14438106351, 114039.53898424376, 114522.1354987783, 110936.89333640259, 112639.20219411877, 139700.3697991812, 0.044, 0.202, 0.986, 192.0, 0.0, 0.0, 0.0, 0.0, 0.0, 0.0, 0.0, 0.0, 0.0, 1.7243832302865937E9, 0.0, 2024-08-23 11:20:30.286
132.0, 187500.0, 103505.09476722417, 116050.34661893209, 113987.21355047388, 114478.1249139458, 110879.20348396343, 112603.26058903463, 139657.65561552712, 0.044, 0.202, 0.986, 192.0, 0.0, 0.0, 0.0, 0.0, 0.0, 0.0, 0.0, 0.0, 0.0, 1.7243832302895784E9, 0.0, 2024-08-23 11:20:30.289
133.0, 187500.0, 103497.60693283164, 116044.08813048461, 113973.98131775633, 114470.74883827554, 110859.42219012049, 112598.65612967685, 139650.99479567943, 0.044, 0.202, 0.986, 192.0, 0.0, 0.0, 0.0, 0.0, 0.0, 0.0, 0.0, 0.0, 0.0, 1.7243832302936316E9, 0.0, 2024-08-23 11:20:30.293
134.0, 187500.0, 103556.16850330455, 116102.18031432395, 114044.7692924463, 114524.81770811293, 110942.99536263889, 112653.37320010344, 139711.7244853645, 0.044, 0.202, 0.986, 192.0, 0.0, 0.0, 0.0, 0.0, 0.0, 0.0, 0.0, 0.0, 0.0, 1.7243832302976336E9, 0.0, 2024-08-23 11:20:30.297
135.0, 187500.0, 103576.97797739244, 116123.48152678985, 114074.45240908295, 114543.05673158845, 110969.6386420296, 112677.82600853754, 139730.72346815153, 0.044, 0.202, 0.986, 192.0, 0.0, 0.0, 0.0, 0.0, 0.0, 0.0, 0.0, 0.0, 0.0, 1.72438323030168E9, 0.0, 2024-08-23 11:20:30.301
136.0, 187500.0, 103569.13251508863, 116118.36297730959, 114063.0753711552, 114535.34537975138, 110948.31507781925, 112676.44020038132, 139726.38722972717, 0.044, 0.202, 0.986, 192.0, 0.0, 0.0, 0.0, 0.0, 0.0, 0.0, 0.0, 0.0, 0.0, 1.7243832303067517E9, 0.0, 2024-08-23 11:20:30.306
137.0, 187500.0, 103560.86236964016, 116114.45142202992, 114045.70806571342, 114522.71664413413, 110922.54351646228, 112671.07578171203, 139716.1277790222, 0.044, 0.202, 0.986, 192.0, 0.0, 0.0, 0.0, 0.0, 0.0, 0.0, 0.0, 0.0, 0.0, 1.724383230310648E9, 0.0, 2024-08-23 11:20:30.310
138.0, 187500.0, 103576.7991634368, 116132.39987282752, 114054.62641175109, 114533.75840589505, 110928.51143223184, 112687.97370052025, 139721.20162501355, 0.036000000000000004, 0.20400000000000001, 0.99, 192.0, 1.0, 32.0, 6.0, 96.0, 30.0, 240.0, 0.0, 0.0, 0.0, 1.7243832303146076E9, 0.0, 2024-08-23 11:20:30.314
139.0, 187500.0, 103644.54730088083, 116199.58921666017, 114135.96440982395, 114609.03908122053, 111013.24689546191, 112744.05422735862, 139783.31712285485, 0.036000000000000004, 0.20400000000000001, 0.99, 192.0, 0.0, 0.0, 0.0, 0.0, 0.0, 0.0, 0.0, 0.0, 0.0, 1.7243832303177495E9, 0.0, 2024-08-23 11:20:30.317
140.0, 187500.0, 103645.88840554815, 116198.27046373731, 114146.6932471625, 114613.28591266704, 111025.22743048996, 112737.21459355528, 139784.01002693296, 0.036000000000000004, 0.20400000000000001, 0.99, 192.0, 0.0, 0.0, 0.0, 0.0, 0.0, 0.0, 0.0, 0.0, 0.0, 1.72438323032167E9, 0.0, 2024-08-23 11:20:30.321
141.0, 187500.0, 103592.8030124668, 116145.22977414487, 114090.85858951314, 114562.50274926457, 110966.0400111723, 112690.45474415479, 139737.69721242157, 0.036000000000000004, 0.20400000000000001, 0.99, 192.0, 0.0, 0.0, 0.0, 0.0, 0.0, 0.0, 0.0, 0.0, 0.0, 1.724383230325678E9, 0.0, 2024-08-23 11:20:30.325
142.0, 187500.0, 103541.8857385976, 116097.03941309922, 114029.92773412798, 114503.58355088039, 110900.3705859626, 112646.66767676684, 139691.58556361028, 0.036000000000000004, 0.20400000000000001, 0.99, 192.0, 0.0, 0.0, 0.0, 0.0, 0.0, 0.0, 0.0, 0.0, 0.0, 1.7243832303296762E9, 0.0, 2024-08-23 11:20:30.329
143.0, 187500.0, 103531.0898460257, 116086.93642460543, 114013.92388509797, 114488.63023383978, 110885.75254508884, 112635.78237721711, 139692.45728164402, 0.036000000000000004, 0.20400000000000001, 0.99, 192.0, 0.0, 0.0, 0.0, 0.0, 0.0, 0.0, 0.0, 0.0, 0.0, 1.724383230334694E9, 0.0, 2024-08-23 11:20:30.334
144.0, 187500.0, 103599.62029452567, 116151.33180038117, 114098.01114773884, 114567.91187142277, 110980.61334855716, 112693.42752616735, 139756.5844364863, 0.036000000000000004, 0.20400000000000001, 0.99, 192.0, 0.0, 0.0, 0.0, 0.0, 0.0, 0.0, 0.0, 0.0, 0.0, 1.7243832303387823E9, 0.0, 2024-08-23 11:20:30.338
145.0, 187500.0, 103596.58045727975, 116143.06165493271, 114100.9839297514, 114566.86133943337, 110980.5015898349, 112686.342023175, 139756.40562253067, 0.036000000000000004, 0.20400000000000001, 0.99, 192.0, 0.0, 0.0, 0.0, 0.0, 0.0, 0.0, 0.0, 0.0, 0.0, 1.7243832303427153E9, 0.0, 2024-08-23 11:20:30.342
146.0, 187500.0, 103556.63788993811, 116103.29790154671, 114054.42524605099, 114518.5815714099, 110936.24513581338, 112651.85328148048, 139725.06847680433, 0.036000000000000004, 0.20400000000000001, 0.99, 192.0, 0.0, 0.0, 0.0, 0.0, 0.0, 0.0, 0.0, 0.0, 0.0, 1.7243832303456888E9, 0.0, 2024-08-23 11:20:30.345
147.0, 187500.0, 103519.4892906534, 116068.16095926297, 114015.22028627638, 114487.69146057266, 110891.76516434732, 112620.6278944764, 139687.0258077414, 0.036000000000000004, 0.20400000000000001, 0.99, 192.0, 0.0, 0.0, 0.0, 0.0, 0.0, 0.0, 0.0, 0.0, 0.0, 1.7243832303497095E9, 0.0, 2024-08-23 11:20:30.349
148.0, 187500.0, 103507.10642422515, 116058.43795042491, 114004.91613208248, 114489.85957978482, 110879.13642873007, 112615.82226941852, 139671.80426976734, 0.038, 0.202, 0.99, 192.0, 1.0, 48.0, 6.0, 80.0, 30.0, 240.0, 0.0, 0.0, 0.0, 1.724383230353737E9, 0.0, 2024-08-23 11:20:30.353
149.0, 187500.0, 103592.93712293352, 116144.11218692211, 114106.01307225385, 114581.92641519624, 110992.32566265174, 112694.65687211239, 139748.56016022686, 0.038, 0.202, 0.99, 192.0, 0.0, 0.0, 0.0, 0.0, 0.0, 0.0, 0.0, 0.0, 0.0, 1.7243832303577373E9, 0.0, 2024-08-23 11:20:30.357
150.0, 187500.0, 103611.64553304263, 116160.25014641884, 114126.934305064, 114594.33163336893, 111012.1516599836, 112705.63157863994, 139760.6301022327, 0.038, 0.202, 0.99, 192.0, 0.0, 0.0, 0.0, 0.0, 0.0, 0.0, 0.0, 0.0, 0.0, 1.7243832303627508E9, 0.0, 2024-08-23 11:20:30.362
151.0, 187500.0, 103546.22197702194, 116099.22988405585, 114055.94516467395, 114524.70594939066, 110941.52014750484, 112647.11471165594, 139702.69438060457, 0.038, 0.202, 0.99, 192.0, 0.0, 0.0, 0.0, 0.0, 0.0, 0.0, 0.0, 0.0, 0.0, 1.7243832303667705E9, 0.0, 2024-08-23 11:20:30.366
152.0, 187500.0, 103514.37074117313, 116071.29020348671, 114016.67314966598, 114498.50970488903, 110898.49303942837, 112620.29261830958, 139671.20077266704, 0.038, 0.202, 0.99, 192.0, 0.0, 0.0, 0.0, 0.0, 0.0, 0.0, 0.0, 0.0, 0.0, 1.7243832303707793E9, 0.0, 2024-08-23 11:20:30.370
153.0, 187500.0, 103529.32405821372, 116084.20951178188, 114023.49043172484, 114513.64183588527, 110899.20829525094, 112640.61035401946, 139682.7119210615, 0.038, 0.202, 0.99, 192.0, 0.0, 0.0, 0.0, 0.0, 0.0, 0.0, 0.0, 0.0, 0.0, 1.7243832303738112E9, 0.0, 2024-08-23 11:20:30.373
154.0, 187500.0, 103593.63002701165, 116142.36875085458, 114093.60785408114, 114568.11303712286, 110985.26251140387, 112695.3497761905, 139748.60486371577, 0.038, 0.202, 0.99, 192.0, 0.0, 0.0, 0.0, 0.0, 0.0, 0.0, 0.0, 0.0, 0.0, 1.7243832303778365E9, 0.0, 2024-08-23 11:20:30.377
155.0, 187500.0, 103617.68050404555, 116161.63595457506, 114128.85655508716, 114596.58915955892, 111030.92712532607, 112712.0018258097, 139776.20926811805, 0.038, 0.202, 0.99, 192.0, 0.0, 0.0, 0.0, 0.0, 0.0, 0.0, 0.0, 0.0, 0.0, 1.7243832303817728E9, 0.0, 2024-08-23 11:20:30.381
156.0, 187500.0, 103588.98086416494, 116132.48927980535, 114095.26188317084, 114581.16645588476, 110984.77077302586, 112681.2458254392, 139745.96735787005, 0.038, 0.202, 0.99, 192.0, 0.0, 0.0, 0.0, 0.0, 0.0, 0.0, 0.0, 0.0, 0.0, 1.7243832303857841E9, 0.0, 2024-08-23 11:20:30.385
157.0, 187500.0, 103544.65735491007, 116089.1045438176, 114034.88982139705, 114531.21030702714, 110915.50271695886, 112641.99616217568, 139708.75170335194, 0.038, 0.202, 0.99, 192.0, 0.0, 0.0, 0.0, 0.0, 0.0, 0.0, 0.0, 0.0, 0.0, 1.7243832303897731E9, 0.0, 2024-08-23 11:20:30.389
158.0, 187500.0, 103525.50190991187, 116070.61965115306, 114008.73828038435, 114505.43874567018, 110890.13348700208, 112630.61912424793, 139693.8654415447, 0.036000000000000004, 0.2, 0.988, 192.0, 1.0, 32.0, 6.0, 64.0, 30.0, 224.0, 0.0, 0.0, 0.0, 1.7243832303947966E9, 0.0, 2024-08-23 11:20:30.394
159.0, 187500.0, 103606.81755624028, 116151.22004165889, 114105.27546468681, 114587.49199956561, 110996.03605223133, 112704.603398395, 139766.70977672457, 0.036000000000000004, 0.2, 0.988, 192.0, 0.0, 0.0, 0.0, 0.0, 0.0, 0.0, 0.0, 0.0, 0.0, 1.724383230398793E9, 0.0, 2024-08-23 11:20:30.398
160.0, 187500.0, 103627.3141059058, 116170.12961746808, 114132.43283420001, 114599.00314796009, 111026.16620375708, 112720.04845381361, 139781.3948728317, 0.036000000000000004, 0.2, 0.988, 192.0, 0.0, 0.0, 0.0, 0.0, 0.0, 0.0, 0.0, 0.0, 0.0, 1.7243832304018006E9, 0.0, 2024-08-23 11:20:30.401
161.0, 187500.0, 103585.51634377436, 116127.92952393646, 114080.19680740796, 114552.77974042651, 110969.4374763295, 112679.21181669377, 139741.89934037917, 0.036000000000000004, 0.2, 0.988, 192.0, 0.0, 0.0, 0.0, 0.0, 0.0, 0.0, 0.0, 0.0, 0.0, 1.7243832304058392E9, 0.0, 2024-08-23 11:20:30.405
162.0, 187500.0, 103540.3881717191, 116086.37763099404, 114028.18429806046, 114509.7302806056, 110910.71944364542, 112643.09139765399, 139693.23959269997, 0.036000000000000004, 0.2, 0.988, 192.0, 0.0, 0.0, 0.0, 0.0, 0.0, 0.0, 0.0, 0.0, 0.0, 1.724383230410015E9, 0.0, 2024-08-23 11:20:30.410
163.0, 187500.0, 103537.21422400644, 116086.57879669414, 114027.15611781551, 114515.3852719528, 110912.64169366857, 112646.62297327793, 139692.54668862186, 0.036000000000000004, 0.2, 0.988, 192.0, 0.0, 0.0, 0.0, 0.0, 0.0, 0.0, 0.0, 0.0, 0.0, 1.7243832304138265E9, 0.0, 2024-08-23 11:20:30.413
164.0, 187500.0, 103584.77873620734, 116134.27741936177, 114088.44460111197, 114560.4910922636, 110980.12161017915, 112688.42073540935, 139741.09467757877, 0.036000000000000004, 0.2, 0.988, 192.0, 0.0, 0.0, 0.0, 0.0, 0.0, 0.0, 0.0, 0.0, 0.0, 1.724383230417904E9, 0.0, 2024-08-23 11:20:30.417
165.0, 187500.0, 103595.66403575707, 116143.39693109953, 114111.10926998965, 114577.23254886063, 111001.06519473378, 112694.07572675655, 139754.34926204078, 0.036000000000000004, 0.2, 0.988, 192.0, 0.0, 0.0, 0.0, 0.0, 0.0, 0.0, 0.0, 0.0, 0.0, 1.7243832304228384E9, 0.0, 2024-08-23 11:20:30.422
166.0, 187500.0, 103574.76515469137, 116121.46986978888, 114085.71768828842, 114561.60867948637, 110968.76692399585, 112675.45672362528, 139728.30947975034, 0.036000000000000004, 0.2, 0.988, 192.0, 0.0, 0.0, 0.0, 0.0, 0.0, 0.0, 0.0, 0.0, 0.0, 1.7243832304268644E9, 0.0, 2024-08-23 11:20:30.426
167.0, 187500.0, 103542.35512523117, 116089.77509615125, 114042.60117323413, 114528.46104245914, 110918.20727803795, 112647.49469131169, 139700.70507534803, 0.036000000000000004, 0.2, 0.988, 192.0, 0.0, 0.0, 0.0, 0.0, 0.0, 0.0, 0.0, 0.0, 0.0, 1.7243832304298368E9, 0.0, 2024-08-23 11:20:30.429
168.0, 187500.0, 103542.51158744235, 116090.51270371828, 114038.77902493227, 114529.01983607053, 110910.3841674786, 112651.27213612464, 139709.3775521967, 0.034, 0.202, 0.988, 192.0, 1.0, 16.0, 6.0, 80.0, 30.0, 224.0, 0.0, 0.0, 0.0, 1.7243832304338462E9, 0.0, 2024-08-23 11:20:30.433
169.0, 187500.0, 103590.947817677, 116135.68557926246, 114097.60881633864, 114574.1927116147, 110979.67457529005, 112691.32646218855, 139757.5902649868, 0.034, 0.202, 0.988, 192.0, 0.0, 0.0, 0.0, 0.0, 0.0, 0.0, 0.0, 0.0, 0.0, 1.724383230437842E9, 0.0, 2024-08-23 11:20:30.437
170.0, 187500.0, 103598.41330032508, 116141.07234967618, 114109.4328891555, 114572.538682525, 110995.76783129787, 112695.9532732908, 139758.95372139857, 0.034, 0.202, 0.988, 192.0, 0.0, 0.0, 0.0, 0.0, 0.0, 0.0, 0.0, 0.0, 0.0, 1.7243832304418492E9, 0.0, 2024-08-23 11:20:30.441
171.0, 187500.0, 103579.23550358243, 116124.68852099044, 114085.6282813106, 114558.92647015172, 110973.93017696503, 112679.39063064942, 139738.56893045534, 0.034, 0.202, 0.988, 192.0, 0.0, 0.0, 0.0, 0.0, 0.0, 0.0, 0.0, 0.0, 0.0, 1.7243832304459085E9, 0.0, 2024-08-23 11:20:30.445
172.0, 187500.0, 103549.50768345686, 116100.23571255634, 114047.94324015896, 114534.25014427307, 110924.39871125207, 112655.00487744866, 139707.8799853182, 0.034, 0.202, 0.988, 192.0, 0.0, 0.0, 0.0, 0.0, 0.0, 0.0, 0.0, 0.0, 0.0, 1.7243832304509728E9, 0.0, 2024-08-23 11:20:30.450
173.0, 187500.0, 103534.91199432756, 116086.93642460543, 114025.14446081454, 114508.16565849373, 110898.2695219838, 112649.30518261257, 139701.2191654705, 0.034, 0.202, 0.988, 192.0, 0.0, 0.0, 0.0, 0.0, 0.0, 0.0, 0.0, 0.0, 0.0, 1.7243832304539795E9, 0.0, 2024-08-23 11:20:30.453
174.0, 187500.0, 103603.77771899436, 116152.3152771372, 114107.46593564343, 114590.26361587807, 110999.88055227764, 112707.28560772963, 139761.1888958441, 0.034, 0.202, 0.988, 192.0, 0.0, 0.0, 0.0, 0.0, 0.0, 0.0, 0.0, 0.0, 0.0, 1.724383230456908E9, 0.0, 2024-08-23 11:20:30.456
175.0, 187500.0, 103621.2567831584, 116165.23458543236, 114135.22680225693, 114618.96325575869, 111033.43052070505, 112714.41581421088, 139771.738919227, 0.034, 0.202, 0.988, 192.0, 0.0, 0.0, 0.0, 0.0, 0.0, 0.0, 0.0, 0.0, 0.0, 1.7243832304619942E9, 0.0, 2024-08-23 11:20:30.461
176.0, 187500.0, 103573.89343665761, 116116.59718949762, 114084.46599059892, 114570.66113599077, 110976.5900345552, 112670.31582240056, 139728.80121812836, 0.034, 0.202, 0.988, 192.0, 0.0, 0.0, 0.0, 0.0, 0.0, 0.0, 0.0, 0.0, 0.0, 1.7243832304658947E9, 0.0, 2024-08-23 11:20:30.465
177.0, 187500.0, 103529.01113379135, 116073.90535758798, 114026.12793757058, 114516.8828388313, 110905.80205986525, 112634.55303127207, 139685.50588911842, 0.034, 0.202, 0.988, 192.0, 0.0, 0.0, 0.0, 0.0, 0.0, 0.0, 0.0, 0.0, 0.0, 1.7243832304699273E9, 0.0, 2024-08-23 11:20:30.469
178.0, 187500.0, 103559.83418939522, 116106.58360798164, 114050.58074600468, 114542.09560657688, 110936.64746721358, 112672.03690672362, 139716.6865726336, 0.036000000000000004, 0.202, 0.988, 192.0, 1.0, 32.0, 6.0, 80.0, 30.0, 224.0, 0.0, 0.0, 0.0, 1.7243832304739015E9, 0.0, 2024-08-23 11:20:30.473
179.0, 187500.0, 103635.04780948733, 116178.39976291654, 114136.56790692425, 114622.62894184935, 111031.06123579279, 112733.68301793135, 139794.31418112686, 0.036000000000000004, 0.202, 0.988, 192.0, 0.0, 0.0, 0.0, 0.0, 0.0, 0.0, 0.0, 0.0, 0.0, 1.7243832304789429E9, 0.0, 2024-08-23 11:20:30.478
180.0, 187500.0, 103646.5589578818, 116185.6193763756, 114156.48331123393, 114635.30238095552, 111051.49073022495, 112736.25346854371, 139801.31027714137, 0.036000000000000004, 0.202, 0.988, 192.0, 0.0, 0.0, 0.0, 0.0, 0.0, 0.0, 0.0, 0.0, 0.0, 1.724383230481946E9, 0.0, 2024-08-23 11:20:30.481
181.0, 187500.0, 103591.7524804774, 116133.3162943502, 114095.59715933766, 114572.06929589144, 110983.31790963626, 112690.18652322133, 139746.14617182568, 0.036000000000000004, 0.202, 0.988, 192.0, 0.0, 0.0, 0.0, 0.0, 0.0, 0.0, 0.0, 0.0, 0.0, 1.7243832304859169E9, 0.0, 2024-08-23 11:20:30.485
182.0, 187500.0, 103547.67484041154, 116094.11133457559, 114044.27755406828, 114528.2822285035, 110927.41619675353, 112657.95530771677, 139710.3833806972, 0.036000000000000004, 0.202, 0.988, 192.0, 0.0, 0.0, 0.0, 0.0, 0.0, 0.0, 0.0, 0.0, 0.0, 1.7243832304899492E9, 0.0, 2024-08-23 11:20:30.489
183.0, 187500.0, 103553.91097711456, 116101.5097619903, 114047.38444654757, 114547.41532175725, 110926.25390604186, 112667.18657817681, 139718.31824997882, 0.036000000000000004, 0.202, 0.988, 192.0, 0.0, 0.0, 0.0, 0.0, 0.0, 0.0, 0.0, 0.0, 0.0, 1.7243832304939454E9, 0.0, 2024-08-23 11:20:30.493
184.0, 187500.0, 103604.47062307247, 116149.27543989128, 114107.84591529917, 114592.96817695716, 110996.68425282053, 112708.98434030823, 139765.748651713, 0.036000000000000004, 0.202, 0.988, 192.0, 0.0, 0.0, 0.0, 0.0, 0.0, 0.0, 0.0, 0.0, 0.0, 1.7243832304979503E9, 0.0, 2024-08-23 11:20:30.497
185.0, 187500.0, 103620.13919593564, 116162.53002435328, 114129.6388661431, 114605.64161606332, 111023.46164267798, 112717.41094796789, 139779.02558791943, 0.036000000000000004, 0.202, 0.988, 192.0, 0.0, 0.0, 0.0, 0.0, 0.0, 0.0, 0.0, 0.0, 0.0, 1.7243832305020015E9, 0.0, 2024-08-23 11:20:30.502
186.0, 187500.0, 103586.41041355258, 116128.84594545914, 114085.44946735496, 114563.32976380942, 110971.9408717085, 112685.67147084135, 139746.79437241488, 0.036000000000000004, 0.202, 0.988, 192.0, 0.0, 0.0, 0.0, 0.0, 0.0, 0.0, 0.0, 0.0, 0.0, 1.7243832305059633E9, 0.0, 2024-08-23 11:20:30.505
187.0, 187500.0, 103549.61944217914, 116095.02775609825, 114039.40487377702, 114524.77300462402, 110921.33652226168, 112659.38581936191, 139714.89843307715, 0.036000000000000004, 0.202, 0.988, 192.0, 0.0, 0.0, 0.0, 0.0, 0.0, 0.0, 0.0, 0.0, 0.0, 1.7243832305100346E9, 0.0, 2024-08-23 11:20:30.510
188.0, 187500.0, 103553.46394222545, 116101.84503815712, 114043.49524301235, 114535.2336210291, 110929.89724038808, 112669.71232530026, 139718.78763661237, 0.04, 0.198, 0.988, 192.0, 1.0, 64.0, 6.0, 48.0, 30.0, 224.0, 0.0, 0.0, 0.0, 1.7243832305129435E9, 0.0, 2024-08-23 11:20:30.512
189.0, 187500.0, 103619.62510581316, 116163.55820459822, 114123.3356742067, 114605.95454048569, 111022.12053801067, 112724.76467189369, 139777.1927448741, 0.04, 0.198, 0.988, 192.0, 0.0, 0.0, 0.0, 0.0, 0.0, 0.0, 0.0, 0.0, 0.0, 1.724383230518024E9, 0.0, 2024-08-23 11:20:30.518
190.0, 187500.0, 103616.47350984496, 116158.4173033735, 114127.71661611994, 114596.85738049238, 111023.37223570017, 112716.11454678948, 139771.35893957128, 0.04, 0.198, 0.988, 192.0, 0.0, 0.0, 0.0, 0.0, 0.0, 0.0, 0.0, 0.0, 0.0, 1.7243832305219831E9, 0.0, 2024-08-23 11:20:30.521
191.0, 187500.0, 103569.93717788902, 116114.94316040793, 114074.34065036067, 114547.81765315744, 110960.9885169254, 112672.50629335718, 139731.28226176288, 0.04, 0.198, 0.988, 192.0, 0.0, 0.0, 0.0, 0.0, 0.0, 0.0, 0.0, 0.0, 0.0, 1.7243832305259593E9, 0.0, 2024-08-23 11:20:30.525
192.0, 187500.0, 103543.20449152048, 116092.59141595261, 114037.30380979822, 114514.93823706369, 110915.50271695886, 112659.58698506201, 139703.36493293822, 0.04, 0.198, 0.988, 192.0, 0.0, 0.0, 0.0, 0.0, 0.0, 0.0, 0.0, 0.0, 0.0, 1.7243832305300007E9, 0.0, 2024-08-23 11:20:30.530
193.0, 187500.0, 103551.51934045785, 116103.36495678007, 114039.3154667992, 114516.50285917555, 110914.56394369173, 112668.88531075542, 139715.34546796625, 0.04, 0.198, 0.988, 192.0, 0.0, 0.0, 0.0, 0.0, 0.0, 0.0, 0.0, 0.0, 0.0, 1.7243832305340524E9, 0.0, 2024-08-23 11:20:30.534
194.0, 187500.0, 103610.01385569738, 116160.54071909675, 114111.66806360103, 114580.83117971793, 110989.88932250612, 112719.33319799104, 139776.65630300718, 0.04, 0.198, 0.988, 192.0, 0.0, 0.0, 0.0, 0.0, 0.0, 0.0, 0.0, 0.0, 0.0, 1.7243832305390568E9, 0.0, 2024-08-23 11:20:30.539
195.0, 187500.0, 103624.83306227125, 116170.46489363491, 114133.05868304476, 114597.08089793693, 111012.08460475024, 112725.61403818299, 139783.2947711104, 0.04, 0.198, 0.988, 192.0, 0.0, 0.0, 0.0, 0.0, 0.0, 0.0, 0.0, 0.0, 0.0, 1.7243832305420477E9, 0.0, 2024-08-23 11:20:30.542
196.0, 187500.0, 103557.37549750514, 116105.84600041462, 114060.5719757762, 114525.55531567996, 110935.84280441319, 112664.92905198682, 139715.41252319963, 0.04, 0.198, 0.988, 192.0, 0.0, 0.0, 0.0, 0.0, 0.0, 0.0, 0.0, 0.0, 0.0, 1.7243832305459952E9, 0.0, 2024-08-23 11:20:30.545
197.0, 187500.0, 103550.938195102, 116104.9072271475, 114053.33001057268, 114534.02662682852, 110937.04979861376, 112664.37025837545, 139711.36685745322, 0.04, 0.198, 0.988, 192.0, 0.0, 0.0, 0.0, 0.0, 0.0, 0.0, 0.0, 0.0, 0.0, 1.7243832305500486E9, 0.0, 2024-08-23 11:20:30.550
198.0, 187500.0, 103581.42597453904, 116136.93727695195, 114082.36492662012, 114575.95849942668, 110971.8961682196, 112692.86873255596, 139737.22782578802, 0.034, 0.20400000000000001, 0.986, 192.0, 1.0, 16.0, 6.0, 96.0, 30.0, 208.0, 0.0, 0.0, 0.0, 1.724383230554002E9, 0.0, 2024-08-23 11:20:30.554
199.0, 187500.0, 103634.84664378723, 116185.7758385868, 114142.40171222707, 114628.52980238556, 111035.3527707282, 112735.40410225441, 139783.2947711104, 0.034, 0.20400000000000001, 0.986, 192.0, 0.0, 0.0, 0.0, 0.0, 0.0, 0.0, 0.0, 0.0, 0.0, 1.7243832305580516E9, 0.0, 2024-08-23 11:20:30.558
200.0, 187500.0, 103628.67756231756, 116176.63397510457, 114142.0887878047, 114610.76016554359, 111029.09428228073, 112729.10091031801, 139779.98671293102, 0.034, 0.20400000000000001, 0.986, 192.0, 0.0, 0.0, 0.0, 0.0, 0.0, 0.0, 0.0, 0.0, 0.0, 1.7243832305620475E9, 0.0, 2024-08-23 11:20:30.562
201.0, 187500.0, 103589.80787870979, 116138.68071301946, 114095.9771389934, 114560.75931319706, 110978.26641538936, 112699.12722100345, 139744.5815497138, 0.034, 0.20400000000000001, 0.986, 192.0, 0.0, 0.0, 0.0, 0.0, 0.0, 0.0, 0.0, 0.0, 0.0, 1.7243832305661132E9, 0.0, 2024-08-23 11:20:30.566
202.0, 187500.0, 103547.25015726688, 116096.63708169904, 114045.59630699114, 114523.00721681205, 110925.31513277473, 112657.95530771677, 139709.2210899855, 0.034, 0.20400000000000001, 0.986, 192.0, 0.0, 0.0, 0.0, 0.0, 0.0, 0.0, 0.0, 0.0, 0.0, 1.7243832305690775E9, 0.0, 2024-08-23 11:20:30.569
203.0, 187500.0, 103576.21801808095, 116124.97909366836, 114072.15017940405, 114566.01197314406, 110948.87387143062, 112684.28566268513, 139739.10537232226, 0.034, 0.20400000000000001, 0.986, 192.0, 0.0, 0.0, 0.0, 0.0, 0.0, 0.0, 0.0, 0.0, 0.0, 1.724383230573244E9, 0.0, 2024-08-23 11:20:30.573
204.0, 187500.0, 103637.84177754424, 116183.25009146334, 114140.50181394837, 114621.19843020421, 111026.27796247936, 112740.54500347913, 139796.19172766112, 0.034, 0.20400000000000001, 0.986, 192.0, 0.0, 0.0, 0.0, 0.0, 0.0, 0.0, 0.0, 0.0, 0.0, 1.7243832305781426E9, 0.0, 2024-08-23 11:20:30.578
205.0, 187500.0, 103624.72130354897, 116169.3696581566, 114132.72340687794, 114601.10421193889, 111021.29352346582, 112723.26710501518, 139777.48331755202, 0.034, 0.20400000000000001, 0.986, 192.0, 0.0, 0.0, 0.0, 0.0, 0.0, 0.0, 0.0, 0.0, 0.0, 1.724383230582144E9, 0.0, 2024-08-23 11:20:30.582
206.0, 187500.0, 103583.66114898458, 116131.59521002714, 114090.97034823542, 114562.12276960883, 110976.81355199976, 112687.3478516755, 139739.46300023355, 0.034, 0.20400000000000001, 0.986, 192.0, 0.0, 0.0, 0.0, 0.0, 0.0, 0.0, 0.0, 0.0, 0.0, 1.7243832305862195E9, 0.0, 2024-08-23 11:20:30.586
207.0, 187500.0, 103546.78077063333, 116098.67109044446, 114050.75955996032, 114528.19282152568, 110930.21016481044, 112659.67639203984, 139711.90329932014, 0.034, 0.20400000000000001, 0.986, 192.0, 0.0, 0.0, 0.0, 0.0, 0.0, 0.0, 0.0, 0.0, 0.0, 1.7243832305901303E9, 0.0, 2024-08-23 11:20:30.590
208.0, 187500.0, 103551.36287824665, 116103.47671550236, 114049.41845529301, 114538.25110653057, 110923.2811240293, 112665.33138338702, 139720.7769418689, 0.036000000000000004, 0.20600000000000002, 0.988, 192.0, 1.0, 32.0, 6.0, 112.0, 30.0, 224.0, 0.0, 0.0, 0.0, 1.7243832305931334E9, 0.0, 2024-08-23 11:20:30.593
209.0, 187500.0, 103612.6066580542, 116159.31137315171, 114117.70303460397, 114595.67273803626, 111001.08754647823, 112719.78023288015, 139769.3919860592, 0.036000000000000004, 0.20600000000000002, 0.988, 192.0, 0.0, 0.0, 0.0, 0.0, 0.0, 0.0, 0.0, 0.0, 0.0, 1.7243832305971425E9, 0.0, 2024-08-23 11:20:30.597
210.0, 187500.0, 103617.07700694526, 116160.69718130794, 114131.87404058863, 114599.94192122722, 111018.47720366446, 112716.80745086759, 139768.9002476812, 0.036000000000000004, 0.20600000000000002, 0.988, 192.0, 0.0, 0.0, 0.0, 0.0, 0.0, 0.0, 0.0, 0.0, 0.0, 1.7243832306011271E9, 0.0, 2024-08-23 11:20:30.601
211.0, 187500.0, 103588.98086416494, 116132.86925946109, 114103.9343600195, 114583.87101696385, 110981.9991567134, 112688.75601157619, 139740.5358839674, 0.036000000000000004, 0.20600000000000002, 0.988, 192.0, 0.0, 0.0, 0.0, 0.0, 0.0, 0.0, 0.0, 0.0, 0.0, 1.7243832306061382E9, 0.0, 2024-08-23 11:20:30.606
212.0, 187500.0, 103554.13449455911, 116101.17448582346, 114057.46508329692, 114542.49793797708, 110926.61153395314, 112661.79980776309, 139711.6350783867, 0.036000000000000004, 0.20600000000000002, 0.988, 192.0, 0.0, 0.0, 0.0, 0.0, 0.0, 0.0, 0.0, 0.0, 0.0, 1.724383230610146E9, 0.0, 2024-08-23 11:20:30.610
213.0, 187500.0, 103556.23555853791, 116106.87418065956, 114057.50978678583, 114539.74867340908, 110931.10423458865, 112670.6958020563, 139716.8877383337, 0.036000000000000004, 0.20600000000000002, 0.988, 192.0, 0.0, 0.0, 0.0, 0.0, 0.0, 0.0, 0.0, 0.0, 0.0, 1.7243832306141748E9, 0.0, 2024-08-23 11:20:30.614
214.0, 187500.0, 103619.06631220179, 116163.98288774287, 114134.35508422316, 114612.43654637774, 111020.53356415434, 112722.52949744815, 139780.1878786311, 0.036000000000000004, 0.20600000000000002, 0.988, 192.0, 0.0, 0.0, 0.0, 0.0, 0.0, 0.0, 0.0, 0.0, 0.0, 1.7243832306182456E9, 0.0, 2024-08-23 11:20:30.618
215.0, 187500.0, 103603.71066376098, 116145.52034682278, 114121.88281081711, 114587.31318560996, 111008.5977326152, 112702.0552995271, 139774.488183795, 0.036000000000000004, 0.20600000000000002, 0.988, 192.0, 0.0, 0.0, 0.0, 0.0, 0.0, 0.0, 0.0, 0.0, 0.0, 1.7243832306211483E9, 0.0, 2024-08-23 11:20:30.621
216.0, 187500.0, 103562.56110221877, 116105.68953820343, 114073.2230631379, 114546.32008627894, 110953.25481334387, 112667.07481945453, 139731.48342746298, 0.036000000000000004, 0.20600000000000002, 0.988, 192.0, 0.0, 0.0, 0.0, 0.0, 0.0, 0.0, 0.0, 0.0, 0.0, 1.7243832306251829E9, 0.0, 2024-08-23 11:20:30.625
217.0, 187500.0, 103540.49993044138, 116086.33292750514, 114042.91409765651, 114532.68552216119, 110911.12177504561, 112652.03209543611, 139708.41642718512, 0.036000000000000004, 0.20600000000000002, 0.988, 192.0, 0.0, 0.0, 0.0, 0.0, 0.0, 0.0, 0.0, 0.0, 0.0, 1.724383230629176E9, 0.0, 2024-08-23 11:20:30.629
218.0, 187500.0, 103554.6932881705, 116103.09673584662, 114052.52534777229, 114543.10143507738, 110926.67858918651, 112670.20406367828, 139723.86148260374, 0.034, 0.20800000000000002, 0.986, 192.0, 1.0, 16.0, 6.0, 128.0, 30.0, 208.0, 0.0, 0.0, 0.0, 1.724383230633172E9, 0.0, 2024-08-23 11:20:30.633
219.0, 187500.0, 103599.41912882557, 116147.21907940139, 114110.57282812272, 114586.75439199859, 110997.91359876558, 112705.78804085113, 139762.4405935336, 0.034, 0.20800000000000002, 0.986, 192.0, 0.0, 0.0, 0.0, 0.0, 0.0, 0.0, 0.0, 0.0, 0.0, 1.7243832306381648E9, 0.0, 2024-08-23 11:20:30.638
220.0, 187500.0, 103595.73109099045, 116144.62627704458, 114117.09953750367, 114579.08774365041, 111007.88247679264, 112700.6024361375, 139761.32300631082, 0.034, 0.20800000000000002, 0.986, 192.0, 0.0, 0.0, 0.0, 0.0, 0.0, 0.0, 0.0, 0.0, 0.0, 1.7243832306422062E9, 0.0, 2024-08-23 11:20:30.642
221.0, 187500.0, 103553.30748001426, 116104.16961958047, 114068.50684505784, 114537.02176058553, 110950.1926243535, 112664.75023803118, 139724.37557272622, 0.034, 0.20800000000000002, 0.986, 192.0, 0.0, 0.0, 0.0, 0.0, 0.0, 0.0, 0.0, 0.0, 0.0, 1.7243832306462324E9, 0.0, 2024-08-23 11:20:30.646
222.0, 187500.0, 103523.7361220999, 116076.98989832282, 114029.99478936134, 114514.1782777522, 110908.81954536671, 112640.74446448618, 139692.99372351097, 0.034, 0.20800000000000002, 0.986, 192.0, 0.0, 0.0, 0.0, 0.0, 0.0, 0.0, 0.0, 0.0, 0.0, 1.7243832306492667E9, 0.0, 2024-08-23 11:20:30.649
223.0, 187500.0, 103555.38619224861, 116109.84696267212, 114060.169644376, 114558.72530445163, 110939.62024922614, 112670.20406367828, 139725.94019483807, 0.034, 0.20800000000000002, 0.986, 192.0, 0.0, 0.0, 0.0, 0.0, 0.0, 0.0, 0.0, 0.0, 0.0, 1.72438323065322E9, 0.0, 2024-08-23 11:20:30.653
224.0, 187500.0, 103628.47639661747, 116180.43377166198, 114145.41919772855, 114634.34125594393, 111033.25170674942, 112734.3088667761, 139791.78843400342, 0.034, 0.20800000000000002, 0.986, 192.0, 0.0, 0.0, 0.0, 0.0, 0.0, 0.0, 0.0, 0.0, 0.0, 1.7243832306572168E9, 0.0, 2024-08-23 11:20:30.657
225.0, 187500.0, 103627.67173381707, 116175.44933264844, 114153.21995654344, 114628.99918901912, 111046.2604220224, 112730.1067388185, 139792.52604157044, 0.034, 0.20800000000000002, 0.986, 192.0, 0.0, 0.0, 0.0, 0.0, 0.0, 0.0, 0.0, 0.0, 0.0, 1.7243832306622255E9, 0.0, 2024-08-23 11:20:30.662
226.0, 187500.0, 103581.4930297724, 116124.7555762238, 114095.79832503776, 114577.50076979409, 110984.30138639228, 112685.76087781918, 139748.0237183599, 0.034, 0.20800000000000002, 0.986, 192.0, 0.0, 0.0, 0.0, 0.0, 0.0, 0.0, 0.0, 0.0, 0.0, 1.72438323066628E9, 0.0, 2024-08-23 11:20:30.666
227.0, 187500.0, 103560.28122428432, 116103.74493643582, 114065.53406304528, 114555.05961836096, 110946.41517954055, 112671.76868579016, 139722.27450874742, 0.034, 0.20800000000000002, 0.986, 192.0, 0.0, 0.0, 0.0, 0.0, 0.0, 0.0, 0.0, 0.0, 0.0, 1.7243832306702464E9, 0.0, 2024-08-23 11:20:30.670
228.0, 187500.0, 103558.448381239, 116103.58847422463, 114058.00152516384, 114551.21511831465, 110935.41812126854, 112677.82600853754, 139733.45038097506, 0.04, 0.20400000000000001, 0.988, 192.0, 1.0, 64.0, 6.0, 96.0, 30.0, 224.0, 0.0, 0.0, 0.0, 1.724383230674222E9, 0.0, 2024-08-23 11:20:30.674
229.0, 187500.0, 103591.52896303285, 116135.77498624027, 114101.5874268517, 114574.66209824826, 110993.51030510788, 112704.17871525035, 139767.0897563803, 0.04, 0.20400000000000001, 0.988, 192.0, 0.0, 0.0, 0.0, 0.0, 0.0, 0.0, 0.0, 0.0, 0.0, 1.7243832306772947E9, 0.0, 2024-08-23 11:20:30.677
230.0, 187500.0, 103593.56297177827, 116138.14427115253, 114110.77399382282, 114565.72140046614, 111008.1059942372, 112702.41292743837, 139764.02756738992, 0.04, 0.20400000000000001, 0.988, 192.0, 0.0, 0.0, 0.0, 0.0, 0.0, 0.0, 0.0, 0.0, 0.0, 1.724383230681418E9, 0.0, 2024-08-23 11:20:30.681
231.0, 187500.0, 103565.10920108667, 116113.24442782933, 114082.34257487567, 114552.42211251523, 110970.10802866318, 112675.05439222508, 139726.65545066065, 0.04, 0.20400000000000001, 0.988, 192.0, 0.0, 0.0, 0.0, 0.0, 0.0, 0.0, 0.0, 0.0, 0.0, 1.724383230685286E9, 0.0, 2024-08-23 11:20:30.685
232.0, 187500.0, 103540.11995078564, 116090.06566882918, 114050.35722856013, 114544.2860775335, 110931.19364156648, 112654.6919530263, 139702.33675269329, 0.04, 0.20400000000000001, 0.988, 192.0, 0.0, 0.0, 0.0, 0.0, 0.0, 0.0, 0.0, 0.0, 0.0, 1.7243832306893167E9, 0.0, 2024-08-23 11:20:30.689
233.0, 187500.0, 103553.08396256971, 116104.75076493631, 114058.56031877523, 114558.92647015172, 110931.3277520332, 112672.23807242372, 139720.70988663554, 0.04, 0.20400000000000001, 0.988, 192.0, 0.0, 0.0, 0.0, 0.0, 0.0, 0.0, 0.0, 0.0, 0.0, 1.724383230694338E9, 0.0, 2024-08-23 11:20:30.694
234.0, 187500.0, 103606.57168705127, 116156.22683241688, 114118.93238054901, 114601.17126717226, 110999.61233134418, 112714.88520084444, 139778.42209081913, 0.04, 0.20400000000000001, 0.988, 192.0, 0.0, 0.0, 0.0, 0.0, 0.0, 0.0, 0.0, 0.0, 0.0, 1.7243832306982703E9, 0.0, 2024-08-23 11:20:30.698
235.0, 187500.0, 103586.63393099714, 116132.39987282752, 114102.19092395199, 114569.09651387889, 110985.70954629297, 112690.63355811044, 139755.84682891928, 0.04, 0.20400000000000001, 0.988, 192.0, 0.0, 0.0, 0.0, 0.0, 0.0, 0.0, 0.0, 0.0, 0.0, 1.7243832307013469E9, 0.0, 2024-08-23 11:20:30.701
236.0, 187500.0, 103552.07813406923, 116099.78867766722, 114064.48353105588, 114538.00523734155, 110952.38309531011, 112662.02332520764, 139723.57090992582, 0.04, 0.20400000000000001, 0.988, 192.0, 0.0, 0.0, 0.0, 0.0, 0.0, 0.0, 0.0, 0.0, 0.0, 1.724383230705332E9, 0.0, 2024-08-23 11:20:30.705
237.0, 187500.0, 103536.32015422823, 116087.98695659483, 114044.50107151283, 114533.15490879476, 110930.679551444, 112650.98156344672, 139706.85180507324, 0.04, 0.20400000000000001, 0.988, 192.0, 0.0, 0.0, 0.0, 0.0, 0.0, 0.0, 0.0, 0.0, 0.0, 1.7243832307092903E9, 0.0, 2024-08-23 11:20:30.709
238.0, 187500.0, 103546.71371539995, 116100.79450616772, 114049.39610354854, 114544.80016765598, 110927.59501070918, 112664.61612756446, 139718.0276773009, 0.04, 0.20800000000000002, 0.986, 192.0, 1.0, 64.0, 6.0, 128.0, 30.0, 208.0, 0.0, 0.0, 0.0, 1.7243832307133272E9, 0.0, 2024-08-23 11:20:30.713
239.0, 187500.0, 103598.18978288052, 116149.18603291347, 114104.85078154216, 114580.048868662, 110985.37427012615, 112709.25256124171, 139766.17333485762, 0.04, 0.20800000000000002, 0.986, 192.0, 0.0, 0.0, 0.0, 0.0, 0.0, 0.0, 0.0, 0.0, 0.0, 1.724383230717344E9, 0.0, 2024-08-23 11:20:30.717
240.0, 187500.0, 103584.75638446289, 116133.00336992781, 114096.46887737143, 114562.27923182002, 110984.86018000367, 112692.6452151114, 139758.01494813146, 0.04, 0.20800000000000002, 0.986, 192.0, 0.0, 0.0, 0.0, 0.0, 0.0, 0.0, 0.0, 0.0, 0.0, 1.7243832307223904E9, 0.0, 2024-08-23 11:20:30.722
241.0, 187500.0, 103557.4425527385, 116104.7060614474, 114063.83533046668, 114547.12474907932, 110953.88066218862, 112663.9455752308, 139726.90131984965, 0.04, 0.20800000000000002, 0.986, 192.0, 0.0, 0.0, 0.0, 0.0, 0.0, 0.0, 0.0, 0.0, 0.0, 1.7243832307265463E9, 0.0, 2024-08-23 11:20:30.726
242.0, 187500.0, 103537.10246528417, 116087.02583158325, 114036.40974002001, 114528.30458024796, 110923.45993798494, 112648.16524364534, 139707.85763357373, 0.04, 0.20800000000000002, 0.986, 192.0, 0.0, 0.0, 0.0, 0.0, 0.0, 0.0, 0.0, 0.0, 0.0, 1.724383230729311E9, 0.0, 2024-08-23 11:20:30.729
243.0, 187500.0, 103556.3920207491, 116107.99176788233, 114052.86062393912, 114550.3434002809, 110932.44533925598, 112667.16422643236, 139725.09082854877, 0.04, 0.20800000000000002, 0.986, 192.0, 0.0, 0.0, 0.0, 0.0, 0.0, 0.0, 0.0, 0.0, 0.0, 1.7243832307333467E9, 0.0, 2024-08-23 11:20:30.733
244.0, 187500.0, 103599.30737010328, 116149.92364048048, 114112.09274674568, 114601.17126717226, 111002.31689242327, 112705.40806119538, 139760.65245397718, 0.04, 0.20800000000000002, 0.986, 192.0, 0.0, 0.0, 0.0, 0.0, 0.0, 0.0, 0.0, 0.0, 0.0, 1.724383230737342E9, 0.0, 2024-08-23 11:20:30.737
245.0, 187500.0, 103601.31902710427, 116151.912945737, 114123.96152305145, 114599.65134854929, 111016.93493329705, 112706.05626178459, 139760.27247432142, 0.04, 0.20800000000000002, 0.986, 192.0, 0.0, 0.0, 0.0, 0.0, 0.0, 0.0, 0.0, 0.0, 0.0, 1.7243832307413645E9, 0.0, 2024-08-23 11:20:30.741
246.0, 187500.0, 103583.50468677339, 116134.32212285067, 114099.39695589506, 114576.36083082686, 110989.33052889473, 112692.3993459224, 139741.85463689026, 0.04, 0.20800000000000002, 0.986, 192.0, 0.0, 0.0, 0.0, 0.0, 0.0, 0.0, 0.0, 0.0, 0.0, 1.7243832307453673E9, 0.0, 2024-08-23 11:20:30.745
247.0, 187500.0, 103550.4911602129, 116101.80033466821, 114054.916984429, 114538.1840512972, 110932.40063576707, 112666.4936740987, 139721.22397675802, 0.04, 0.20800000000000002, 0.986, 192.0, 0.0, 0.0, 0.0, 0.0, 0.0, 0.0, 0.0, 0.0, 0.0, 1.7243832307503405E9, 0.0, 2024-08-23 11:20:30.750
248.0, 187500.0, 103542.8915670981, 116097.39704101051, 114040.3659987886, 114527.14228953628, 110915.81564138122, 112663.27502289714, 139721.69336339156, 0.038, 0.202, 0.988, 192.0, 1.0, 48.0, 6.0, 80.0, 30.0, 224.0, 0.0, 0.0, 0.0, 1.7243832307543547E9, 0.0, 2024-08-23 11:20:30.754
249.0, 187500.0, 103600.91669570407, 116147.77787301278, 114104.35904316415, 114580.36179308436, 110995.79018304232, 112706.5032966737, 139769.5484482704, 0.038, 0.202, 0.988, 192.0, 0.0, 0.0, 0.0, 0.0, 0.0, 0.0, 0.0, 0.0, 0.0, 1.724383230757378E9, 0.0, 2024-08-23 11:20:30.757
250.0, 187500.0, 103609.29859987482, 116146.77204451228, 114126.42021494154, 114595.73979326962, 111022.14288975512, 112707.62088389647, 139766.17333485762, 0.038, 0.202, 0.988, 192.0, 0.0, 0.0, 0.0, 0.0, 0.0, 0.0, 0.0, 0.0, 0.0, 1.7243832307613792E9, 0.0, 2024-08-23 11:20:30.761
251.0, 187500.0, 103553.73216315891, 116095.0501078427, 114068.14921714655, 114534.09368206188, 110950.57260400923, 112665.17492117583, 139720.66518314663, 0.038, 0.202, 0.988, 192.0, 0.0, 0.0, 0.0, 0.0, 0.0, 0.0, 0.0, 0.0, 0.0, 1.7243832307654233E9, 0.0, 2024-08-23 11:20:30.765
252.0, 187500.0, 103529.8381483362, 116075.93936633342, 114039.5166324993, 114516.01112079754, 110920.08482457219, 112649.14872040138, 139709.1316830077, 0.038, 0.202, 0.988, 192.0, 0.0, 0.0, 0.0, 0.0, 0.0, 0.0, 0.0, 0.0, 0.0, 1.7243832307694762E9, 0.0, 2024-08-23 11:20:30.769
253.0, 187500.0, 103540.99166881939, 116086.10941006058, 114051.58657450517, 114550.94689738119, 110929.7854816658, 112658.4917495837, 139721.15692152464, 0.038, 0.202, 0.988, 192.0, 0.0, 0.0, 0.0, 0.0, 0.0, 0.0, 0.0, 0.0, 0.0, 1.7243832307733996E9, 0.0, 2024-08-23 11:20:30.773
254.0, 187500.0, 103590.41137581007, 116133.62921877256, 114111.04221475628, 114593.01288044607, 110998.09241272122, 112699.19427623681, 139765.07809937932, 0.038, 0.202, 0.988, 192.0, 0.0, 0.0, 0.0, 0.0, 0.0, 0.0, 0.0, 0.0, 0.0, 1.724383230777424E9, 0.0, 2024-08-23 11:20:30.777
255.0, 187500.0, 103596.11107064618, 116137.1160909076, 114123.67095037353, 114592.0964589234, 111009.24593320441, 112701.96589254927, 139765.70394822408, 0.038, 0.202, 0.988, 192.0, 0.0, 0.0, 0.0, 0.0, 0.0, 0.0, 0.0, 0.0, 0.0, 1.7243832307824566E9, 0.0, 2024-08-23 11:20:30.782
0.0, 187500.0, 103543.29389849829, 116083.60601468159, 114062.7177432439, 114529.53392619299, 110938.52501374781, 112655.56367106005, 139713.2891074764, 0.038, 0.202, 0.988, 192.0, 0.0, 0.0, 0.0, 0.0, 0.0, 0.0, 0.0, 0.0, 0.0, 1.7243832307855067E9, 0.0, 2024-08-23 11:20:30.785
1.0, 187500.0, 103514.34838942868, 116057.40977017996, 114025.09975732563, 114501.46013515713, 110906.40555696555, 112632.49667078217, 139683.13660420617, 0.038, 0.202, 0.988, 192.0, 0.0, 0.0, 0.0, 0.0, 0.0, 0.0, 0.0, 0.0, 0.0, 1.724383230789502E9, 0.0, 2024-08-23 11:20:30.789
2.0, 187500.0, 103526.53009015681, 116069.23384299682, 114029.57010621669, 114518.02277779851, 110914.31807450272, 112645.81831047754, 139697.9781625245, 0.038, 0.20400000000000001, 0.986, 192.0, 1.0, 48.0, 6.0, 96.0, 30.0, 208.0, 0.0, 0.0, 0.0, 1.7243832307934854E9, 0.0, 2024-08-23 11:20:30.793
3.0, 187500.0, 103595.06053865678, 116135.73028275136, 114104.96254026445, 114588.74369725511, 110991.47629636244, 112702.54703790511, 139764.31814006783, 0.038, 0.20400000000000001, 0.986, 192.0, 0.0, 0.0, 0.0, 0.0, 0.0, 0.0, 0.0, 0.0, 0.0, 1.72438323079744E9, 0.0, 2024-08-23 11:20:30.797
4.0, 187500.0, 103607.21988764047, 116148.35901836862, 114126.46491843044, 114595.67273803626, 111012.03990126132, 112709.25256124171, 139773.37059657223, 0.038, 0.20400000000000001, 0.986, 192.0, 0.0, 0.0, 0.0, 0.0, 0.0, 0.0, 0.0, 0.0, 0.0, 1.724383230801479E9, 0.0, 2024-08-23 11:20:30.801
5.0, 187500.0, 103589.18202986504, 116133.5621635392, 114105.27546468681, 114588.9448629552, 110982.28972939131, 112692.53345638914, 139754.01398587396, 0.038, 0.20400000000000001, 0.986, 192.0, 0.0, 0.0, 0.0, 0.0, 0.0, 0.0, 0.0, 0.0, 0.0, 1.7243832308054836E9, 0.0, 2024-08-23 11:20:30.805
6.0, 187500.0, 103556.32496551574, 116103.99080562482, 114061.08606589868, 114555.21608057215, 110935.01578986834, 112664.3926101199, 139719.50289243495, 0.038, 0.20400000000000001, 0.986, 192.0, 0.0, 0.0, 0.0, 0.0, 0.0, 0.0, 0.0, 0.0, 0.0, 1.7243832308104975E9, 0.0, 2024-08-23 11:20:30.810
7.0, 187500.0, 103558.448381239, 116107.12004984857, 114058.58267051968, 114554.1431968383, 110941.43074052701, 112668.08064795502, 139723.19093027007, 0.038, 0.20400000000000001, 0.986, 192.0, 0.0, 0.0, 0.0, 0.0, 0.0, 0.0, 0.0, 0.0, 0.0, 1.7243832308134935E9, 0.0, 2024-08-23 11:20:30.813
8.0, 187500.0, 103607.21988764047, 116150.84006200315, 114118.37358693763, 114600.18779041622, 111008.28480819284, 112708.80552635259, 139768.07323313633, 0.038, 0.20400000000000001, 0.986, 192.0, 0.0, 0.0, 0.0, 0.0, 0.0, 0.0, 0.0, 0.0, 0.0, 1.7243832308174884E9, 0.0, 2024-08-23 11:20:30.817
9.0, 187500.0, 103598.27918985835, 116138.166622897, 114112.45037465697, 114580.92058669575, 110997.28774992083, 112696.53441864662, 139758.3278725538, 0.038, 0.20400000000000001, 0.986, 192.0, 0.0, 0.0, 0.0, 0.0, 0.0, 0.0, 0.0, 0.0, 0.0, 1.7243832308215437E9, 0.0, 2024-08-23 11:20:30.821
10.0, 187500.0, 103565.19860806449, 116105.80129692571, 114071.09964741465, 114543.4367112442, 110951.01963889833, 112668.28181365512, 139738.12189556623, 0.038, 0.20400000000000001, 0.986, 192.0, 0.0, 0.0, 0.0, 0.0, 0.0, 0.0, 0.0, 0.0, 0.0, 1.7243832308256311E9, 0.0, 2024-08-23 11:20:30.825
11.0, 187500.0, 103546.22197702194, 116086.89172111652, 114044.54577500175, 114526.94112383618, 110925.24807754137, 112657.95530771677, 139718.16178776763, 0.038, 0.20400000000000001, 0.986, 192.0, 0.0, 0.0, 0.0, 0.0, 0.0, 0.0, 0.0, 0.0, 0.0, 1.724383230829481E9, 0.0, 2024-08-23 11:20:30.829
12.0, 187500.0, 103575.32394830274, 116115.07727087467, 114068.84212122466, 114561.92160390873, 110948.67270573053, 112685.17973246334, 139741.60876770125, 0.038, 0.202, 0.988, 192.0, 1.0, 48.0, 6.0, 80.0, 30.0, 224.0, 0.0, 0.0, 0.0, 1.7243832308334978E9, 0.0, 2024-08-23 11:20:30.833
13.0, 187500.0, 103619.40158836861, 116156.74092253935, 114121.65929337255, 114602.11004043938, 111015.88440130765, 112724.58585793804, 139784.07708216633, 0.038, 0.202, 0.988, 192.0, 0.0, 0.0, 0.0, 0.0, 0.0, 0.0, 0.0, 0.0, 0.0, 1.7243832308384967E9, 0.0, 2024-08-23 11:20:30.838
14.0, 187500.0, 103622.86610875919, 116153.99165797135, 114127.1354707641, 114599.85251424939, 111025.09332002322, 112721.54602069213, 139785.95462870057, 0.038, 0.202, 0.988, 192.0, 0.0, 0.0, 0.0, 0.0, 0.0, 0.0, 0.0, 0.0, 0.0, 1.7243832308415253E9, 0.0, 2024-08-23 11:20:30.841
15.0, 187500.0, 103572.68644245702, 116102.64970095751, 114067.85864446864, 114553.785568927, 110957.65810700157, 112671.43340962332, 139741.98874735698, 0.038, 0.202, 0.988, 192.0, 0.0, 0.0, 0.0, 0.0, 0.0, 0.0, 0.0, 0.0, 0.0, 1.724383230845554E9, 0.0, 2024-08-23 11:20:30.845
16.0, 187500.0, 103535.40373270557, 116070.82081685316, 114023.69159742494, 114512.97128355161, 110907.76901337731, 112638.62104876293, 139711.2774504754, 0.038, 0.202, 0.988, 192.0, 0.0, 0.0, 0.0, 0.0, 0.0, 0.0, 0.0, 0.0, 0.0, 1.7243832308496497E9, 0.0, 2024-08-23 11:20:30.849
17.0, 187500.0, 103563.58928246371, 116102.1579625795, 114047.40679829202, 114541.49210947659, 110934.36758927914, 112670.76285728966, 139739.84297988928, 0.038, 0.202, 0.988, 192.0, 0.0, 0.0, 0.0, 0.0, 0.0, 0.0, 0.0, 0.0, 0.0, 1.7243832308536315E9, 0.0, 2024-08-23 11:20:30.853
18.0, 187500.0, 103623.67077155957, 116163.89348076505, 114120.47465091643, 114604.41227011828, 111017.22550597496, 112724.02706432666, 139789.30739036886, 0.038, 0.202, 0.988, 192.0, 0.0, 0.0, 0.0, 0.0, 0.0, 0.0, 0.0, 0.0, 0.0, 1.7243832308577063E9, 0.0, 2024-08-23 11:20:30.857
19.0, 187500.0, 103618.37340812366, 116159.33372489616, 114122.84393582869, 114589.66011877777, 111021.85231707721, 112719.57906718005, 139782.91479145465, 0.038, 0.202, 0.988, 192.0, 0.0, 0.0, 0.0, 0.0, 0.0, 0.0, 0.0, 0.0, 0.0, 1.7243832308615632E9, 0.0, 2024-08-23 11:20:30.861
20.0, 187500.0, 103579.36961404915, 116122.54275352274, 114077.44754283996, 114537.49114721909, 110966.53174955033, 112686.56554061956, 139748.64956720467, 0.038, 0.202, 0.988, 192.0, 0.0, 0.0, 0.0, 0.0, 0.0, 0.0, 0.0, 0.0, 0.0, 1.7243832308665473E9, 0.0, 2024-08-23 11:20:30.866
21.0, 187500.0, 103540.65639265257, 116088.43399148394, 114034.19691731894, 114503.20357122464, 110919.682493172, 112654.55784255956, 139704.63898237218, 0.038, 0.202, 0.988, 192.0, 0.0, 0.0, 0.0, 0.0, 0.0, 0.0, 0.0, 0.0, 0.0, 1.7243832308696525E9, 0.0, 2024-08-23 11:20:30.869
22.0, 187500.0, 103555.40854399306, 116101.08507884564, 114048.94906865944, 114537.22292628563, 110934.05466485675, 112665.71136304276, 139719.86052034624, 0.04, 0.20400000000000001, 0.988, 192.0, 1.0, 64.0, 6.0, 96.0, 30.0, 224.0, 0.0, 0.0, 0.0, 1.724383230873547E9, 0.0, 2024-08-23 11:20:30.873
23.0, 187500.0, 103602.59307653822, 116143.70985552191, 114106.50481063186, 114583.78160998602, 110987.31887189376, 112702.74820360521, 139761.9935586445, 0.04, 0.20400000000000001, 0.988, 192.0, 0.0, 0.0, 0.0, 0.0, 0.0, 0.0, 0.0, 0.0, 0.0, 1.7243832308775907E9, 0.0, 2024-08-23 11:20:30.877
24.0, 187500.0, 103621.97203898097, 116159.62429757409, 114129.59416265419, 114597.84085724842, 111012.37517742816, 112712.76178512118, 139779.58438153082, 0.04, 0.20400000000000001, 0.988, 192.0, 0.0, 0.0, 0.0, 0.0, 0.0, 0.0, 0.0, 0.0, 0.0, 1.7243832308815885E9, 0.0, 2024-08-23 11:20:30.881
25.0, 187500.0, 103612.53960282083, 116151.51061433682, 114116.85366831467, 114590.3530228559, 111003.03214824584, 112702.92701756085, 139772.0518436494, 0.04, 0.20400000000000001, 0.988, 192.0, 0.0, 0.0, 0.0, 0.0, 0.0, 0.0, 0.0, 0.0, 0.0, 1.7243832308855753E9, 0.0, 2024-08-23 11:20:30.885
26.0, 187500.0, 103576.46388726997, 116118.11710812058, 114075.01120269432, 114554.9925631276, 110948.87387143062, 112675.83670328102, 139732.91393910814, 0.04, 0.20400000000000001, 0.988, 192.0, 0.0, 0.0, 0.0, 0.0, 0.0, 0.0, 0.0, 0.0, 0.0, 1.7243832308896036E9, 0.0, 2024-08-23 11:20:30.889
27.0, 187500.0, 103583.43763154003, 116125.94021867994, 114076.62052829511, 114570.5940807574, 110940.11198760415, 112688.55484587609, 139739.82062814484, 0.04, 0.20400000000000001, 0.988, 192.0, 0.0, 0.0, 0.0, 0.0, 0.0, 0.0, 0.0, 0.0, 0.0, 1.7243832308935895E9, 0.0, 2024-08-23 11:20:30.893
28.0, 187500.0, 103648.39180092714, 116186.58050138719, 114152.79527339879, 114644.73481711565, 111036.69387539553, 112740.18737556785, 139799.49978584048, 0.04, 0.20400000000000001, 0.988, 192.0, 0.0, 0.0, 0.0, 0.0, 0.0, 0.0, 0.0, 0.0, 0.0, 1.724383230896619E9, 0.0, 2024-08-23 11:20:30.896
29.0, 187500.0, 103653.2644812184, 116193.06250727923, 114173.42593353105, 114655.35189573192, 111062.80071291933, 112741.21555581279, 139804.08189345384, 0.04, 0.20400000000000001, 0.988, 192.0, 0.0, 0.0, 0.0, 0.0, 0.0, 0.0, 0.0, 0.0, 0.0, 1.7243832309007375E9, 0.0, 2024-08-23 11:20:30.900
30.0, 187500.0, 103604.42591958356, 116149.58836431365, 114119.62528462712, 114599.89721773831, 110996.95247375399, 112702.07765127155, 139762.66411097816, 0.04, 0.20400000000000001, 0.988, 192.0, 0.0, 0.0, 0.0, 0.0, 0.0, 0.0, 0.0, 0.0, 0.0, 1.7243832309056299E9, 0.0, 2024-08-23 11:20:30.905
31.0, 187500.0, 103563.0975440857, 116112.35035805112, 114070.20557763644, 114552.53387123751, 110939.66495271504, 112672.88627301292, 139735.9314246096, 0.04, 0.20400000000000001, 0.988, 192.0, 0.0, 0.0, 0.0, 0.0, 0.0, 0.0, 0.0, 0.0, 0.0, 1.724383230909622E9, 0.0, 2024-08-23 11:20:30.909
32.0, 187500.0, 103565.75740167587, 116115.18902959694, 114069.91500495852, 114557.58536548441, 110940.71548470444, 112679.25652018268, 139737.09371532127, 0.042, 0.202, 0.982, 192.0, 1.0, 80.0, 6.0, 80.0, 30.0, 176.0, 0.0, 0.0, 0.0, 1.724383230913628E9, 0.0, 2024-08-23 11:20:30.913
33.0, 187500.0, 103608.02455044087, 116155.6680388055, 114124.60972364065, 114597.10324968139, 111002.27218893435, 112716.0027880672, 139775.8516402068, 0.042, 0.202, 0.982, 192.0, 0.0, 0.0, 0.0, 0.0, 0.0, 0.0, 0.0, 0.0, 0.0, 1.724383230917706E9, 0.0, 2024-08-23 11:20:30.917
34.0, 187500.0, 103626.88942276115, 116173.54943436975, 114151.61063094267, 114609.32965389844, 111031.32945672625, 112734.04064584264, 139792.19076540362, 0.042, 0.202, 0.982, 192.0, 0.0, 0.0, 0.0, 0.0, 0.0, 0.0, 0.0, 0.0, 0.0, 1.7243832309206681E9, 0.0, 2024-08-23 11:20:30.920
35.0, 187500.0, 103615.3559226222, 116160.02662897429, 114132.74575862239, 114599.98662471613, 111012.46458440597, 112720.4060817249, 139777.72918674102, 0.042, 0.202, 0.982, 192.0, 0.0, 0.0, 0.0, 0.0, 0.0, 0.0, 0.0, 0.0, 0.0, 1.7243832309246264E9, 0.0, 2024-08-23 11:20:30.924
36.0, 187500.0, 103591.08192814374, 116135.17148913998, 114106.39305190957, 114589.21308388867, 110987.76590678286, 112702.81525883857, 139750.61652071675, 0.042, 0.202, 0.982, 192.0, 0.0, 0.0, 0.0, 0.0, 0.0, 0.0, 0.0, 0.0, 0.0, 1.724383230928632E9, 0.0, 2024-08-23 11:20:30.928
37.0, 187500.0, 103589.07027114276, 116133.13748039455, 114095.03836572629, 114585.3462320979, 110970.57741529674, 112699.64131112592, 139753.25402656247, 0.042, 0.202, 0.982, 192.0, 0.0, 0.0, 0.0, 0.0, 0.0, 0.0, 0.0, 0.0, 0.0, 1.7243832309336782E9, 0.0, 2024-08-23 11:20:30.933
38.0, 187500.0, 103636.97005951048, 116177.75156232734, 114145.77682563983, 114622.94186627172, 111030.36833171468, 112735.89584063242, 139802.13729168623, 0.042, 0.202, 0.982, 192.0, 0.0, 0.0, 0.0, 0.0, 0.0, 0.0, 0.0, 0.0, 0.0, 1.7243832309376683E9, 0.0, 2024-08-23 11:20:30.937
39.0, 187500.0, 103635.11486472069, 116171.73894306886, 114147.3414477517, 114612.3471393999, 111033.94461082753, 112729.8608696295, 139802.24905040849, 0.042, 0.202, 0.982, 192.0, 0.0, 0.0, 0.0, 0.0, 0.0, 0.0, 0.0, 0.0, 0.0, 1.724383230941701E9, 0.0, 2024-08-23 11:20:30.941
40.0, 187500.0, 103600.42495732606, 116139.55243105322, 114105.56603736474, 114570.34821156839, 110988.30234864978, 112702.85996232748, 139763.3346633118, 0.042, 0.202, 0.982, 192.0, 0.0, 0.0, 0.0, 0.0, 0.0, 0.0, 0.0, 0.0, 0.0, 1.7243832309458044E9, 0.0, 2024-08-23 11:20:30.945
41.0, 187500.0, 103580.93423616103, 116121.8051459557, 114075.5252928168, 114555.97603988362, 110958.50747329087, 112687.16903771985, 139742.18991305708, 0.042, 0.202, 0.982, 192.0, 0.0, 0.0, 0.0, 0.0, 0.0, 0.0, 0.0, 0.0, 0.0, 1.7243832309486887E9, 0.0, 2024-08-23 11:20:30.948
42.0, 187500.0, 103573.15582909058, 116115.2560848303, 114064.19295837796, 114563.62033648734, 110947.0410283853, 112680.68703182782, 139736.49021822098, 0.044, 0.20400000000000001, 0.984, 192.0, 1.0, 96.0, 6.0, 96.0, 30.0, 192.0, 0.0, 0.0, 0.0, 1.7243832309527075E9, 0.0, 2024-08-23 11:20:30.952
43.0, 187500.0, 103608.06925392977, 116147.50965207932, 114107.935322277, 114596.20917990318, 110995.47725861994, 112706.5032966737, 139769.12376512573, 0.044, 0.20400000000000001, 0.984, 192.0, 0.0, 0.0, 0.0, 0.0, 0.0, 0.0, 0.0, 0.0, 0.0, 1.7243832309566605E9, 0.0, 2024-08-23 11:20:30.956
44.0, 187500.0, 103634.62312634267, 116172.14127446906, 114140.43475871501, 114613.3529679004, 111022.36640719968, 112728.87739287346, 139788.9944659465, 0.044, 0.20400000000000001, 0.984, 192.0, 0.0, 0.0, 0.0, 0.0, 0.0, 0.0, 0.0, 0.0, 0.0, 1.724383230961676E9, 0.0, 2024-08-23 11:20:30.961
45.0, 187500.0, 103613.12074817668, 116153.18699517095, 114113.09857524617, 114585.793266987, 110998.51709586587, 112713.23117175474, 139767.42503254712, 0.044, 0.20400000000000001, 0.984, 192.0, 0.0, 0.0, 0.0, 0.0, 0.0, 0.0, 0.0, 0.0, 0.0, 1.7243832309656632E9, 0.0, 2024-08-23 11:20:30.965
46.0, 187500.0, 103568.01492786586, 116112.03743362874, 114063.94708918895, 114556.06544686145, 110950.99728715388, 112675.27790966963, 139721.29103199136, 0.044, 0.20400000000000001, 0.984, 192.0, 0.0, 0.0, 0.0, 0.0, 0.0, 0.0, 0.0, 0.0, 0.0, 1.7243832309696736E9, 0.0, 2024-08-23 11:20:30.969
47.0, 187500.0, 103571.43474476752, 116116.82070694218, 114065.24349036736, 114572.9410139252, 110945.87873767361, 112681.2458254392, 139728.30947975034, 0.044, 0.20400000000000001, 0.984, 192.0, 0.0, 0.0, 0.0, 0.0, 0.0, 0.0, 0.0, 0.0, 0.0, 1.7243832309736805E9, 0.0, 2024-08-23 11:20:30.973
48.0, 187500.0, 103633.12555946417, 116177.25982394932, 114139.96537208145, 114626.62990410686, 111025.62976189016, 112735.85113714352, 139788.9497624576, 0.044, 0.20400000000000001, 0.984, 192.0, 0.0, 0.0, 0.0, 0.0, 0.0, 0.0, 0.0, 0.0, 0.0, 1.7243832309766731E9, 0.0, 2024-08-23 11:20:30.976
49.0, 187500.0, 103642.33447817976, 116183.16068448553, 114159.67961069103, 114633.60364837691, 111045.1651865441, 112740.12032033448, 139804.97596323205, 0.044, 0.20400000000000001, 0.984, 192.0, 0.0, 0.0, 0.0, 0.0, 0.0, 0.0, 0.0, 0.0, 0.0, 1.7243832309807615E9, 0.0, 2024-08-23 11:20:30.980
50.0, 187500.0, 103595.77579447936, 116139.15009965302, 114106.90714203205, 114582.55226404099, 110987.38592712712, 112699.66366287037, 139766.55331451338, 0.044, 0.20400000000000001, 0.984, 192.0, 0.0, 0.0, 0.0, 0.0, 0.0, 0.0, 0.0, 0.0, 0.0, 1.7243832309847803E9, 0.0, 2024-08-23 11:20:30.984
51.0, 187500.0, 103563.7457446749, 116112.08213711764, 114066.89751945705, 114550.16458632525, 110942.01188588285, 112674.24972942469, 139740.3347182673, 0.044, 0.20400000000000001, 0.984, 192.0, 0.0, 0.0, 0.0, 0.0, 0.0, 0.0, 0.0, 0.0, 0.0, 1.7243832309899235E9, 0.0, 2024-08-23 11:20:30.989
52.0, 187500.0, 103571.01006162287, 116123.81680295669, 114077.8275224957, 114567.06250513346, 110953.23246159941, 112687.1466859754, 139746.50379973697, 0.048, 0.20400000000000001, 0.986, 192.0, 1.0, 128.0, 6.0, 96.0, 30.0, 208.0, 0.0, 0.0, 0.0, 1.724383230993765E9, 0.0, 2024-08-23 11:20:30.993
53.0, 187500.0, 103618.52987033485, 116170.59900410165, 114134.33273247871, 114617.26452318009, 111020.44415717652, 112726.2622387722, 139783.0041984325, 0.048, 0.20400000000000001, 0.986, 192.0, 0.0, 0.0, 0.0, 0.0, 0.0, 0.0, 0.0, 0.0, 0.0, 1.7243832309977057E9, 0.0, 2024-08-23 11:20:30.997
54.0, 187500.0, 103620.45212035801, 116167.58151860017, 114142.31230524926, 114613.28591266704, 111031.48591893744, 112719.1543840354, 139777.57272452983, 0.048, 0.20400000000000001, 0.986, 192.0, 0.0, 0.0, 0.0, 0.0, 0.0, 0.0, 0.0, 0.0, 0.0, 1.7243832310017908E9, 0.0, 2024-08-23 11:20:31.001
55.0, 187500.0, 103588.17620136455, 116135.84204147365, 114104.42609839751, 114576.7408104826, 110989.86697076166, 112688.89012204291, 139752.0246806174, 0.048, 0.20400000000000001, 0.986, 192.0, 0.0, 0.0, 0.0, 0.0, 0.0, 0.0, 0.0, 0.0, 0.0, 1.7243832310047767E9, 0.0, 2024-08-23 11:20:31.004
56.0, 187500.0, 103558.85071263919, 116107.36591903758, 114063.2765368553, 114547.57178396844, 110939.15086259256, 112667.58890957701, 139726.14136053817, 0.048, 0.20400000000000001, 0.986, 192.0, 0.0, 0.0, 0.0, 0.0, 0.0, 0.0, 0.0, 0.0, 0.0, 1.724383231008803E9, 0.0, 2024-08-23 11:20:31.008
57.0, 187500.0, 103561.75643941837, 116109.66814871648, 114056.99569666335, 114548.42115025774, 110925.15867056354, 112675.81435153657, 139731.72929665202, 0.048, 0.20400000000000001, 0.986, 192.0, 0.0, 0.0, 0.0, 0.0, 0.0, 0.0, 0.0, 0.0, 0.0, 1.7243832310128884E9, 0.0, 2024-08-23 11:20:31.012
58.0, 187500.0, 103630.48805361845, 116174.66702159251, 114134.71271213445, 114612.48124986664, 111019.01364553138, 112736.58874471055, 139797.10814918377, 0.048, 0.20400000000000001, 0.986, 192.0, 0.0, 0.0, 0.0, 0.0, 0.0, 0.0, 0.0, 0.0, 0.0, 1.7243832310167685E9, 0.0, 2024-08-23 11:20:31.016
59.0, 187500.0, 103646.5142543929, 116187.2734054653, 114160.81954965825, 114630.04972100852, 111052.27304128087, 112745.88707040394, 139806.58528883284, 0.048, 0.20400000000000001, 0.986, 192.0, 0.0, 0.0, 0.0, 0.0, 0.0, 0.0, 0.0, 0.0, 0.0, 1.7243832310217807E9, 0.0, 2024-08-23 11:20:31.021
60.0, 187500.0, 103616.0041232114, 116159.28902140725, 114122.17338349503, 114597.03619444802, 111006.11668898066, 112719.91434334689, 139777.0362826629, 0.048, 0.20400000000000001, 0.986, 192.0, 0.0, 0.0, 0.0, 0.0, 0.0, 0.0, 0.0, 0.0, 0.0, 1.7243832310257928E9, 0.0, 2024-08-23 11:20:31.025
61.0, 187500.0, 103581.62714023914, 116130.18705012645, 114080.15210391906, 114558.07710386242, 110957.99338316839, 112694.9474447903, 139747.8896078932, 0.048, 0.20400000000000001, 0.986, 192.0, 0.0, 0.0, 0.0, 0.0, 0.0, 0.0, 0.0, 0.0, 0.0, 1.7243832310297675E9, 0.0, 2024-08-23 11:20:31.029
62.0, 187500.0, 103580.06251812728, 116130.63408501555, 114075.16766490552, 114561.65338297527, 110955.42293255603, 112695.7521075907, 139750.8400381613, 0.044, 0.20600000000000002, 0.984, 192.0, 1.0, 96.0, 6.0, 112.0, 30.0, 192.0, 0.0, 0.0, 0.0, 1.724383231032772E9, 0.0, 2024-08-23 11:20:31.032
63.0, 187500.0, 103629.03519022885, 116178.10919023863, 114135.51737493485, 114609.03908122053, 111025.56270665678, 112736.34287552153, 139798.71747478456, 0.044, 0.20600000000000002, 0.984, 192.0, 0.0, 0.0, 0.0, 0.0, 0.0, 0.0, 0.0, 0.0, 0.0, 1.7243832310367665E9, 0.0, 2024-08-23 11:20:31.036
64.0, 187500.0, 103627.62703032816, 116176.45516114893, 114142.93815409401, 114601.70770903918, 111033.07289279377, 112729.81616614059, 139793.44246309312, 0.044, 0.20600000000000002, 0.984, 192.0, 0.0, 0.0, 0.0, 0.0, 0.0, 0.0, 0.0, 0.0, 0.0, 1.724383231042858E9, 0.0, 2024-08-23 11:20:31.042
65.0, 187500.0, 103584.55521876279, 116134.8138612287, 114090.9256447465, 114551.59509797039, 110974.66778453205, 112692.33229068904, 139754.0810411073, 0.044, 0.20600000000000002, 0.984, 192.0, 0.0, 0.0, 0.0, 0.0, 0.0, 0.0, 0.0, 0.0, 0.0, 1.7243832310459013E9, 0.0, 2024-08-23 11:20:31.045
66.0, 187500.0, 103573.22288432394, 116123.92856167896, 114074.60887129413, 114546.61065895685, 110954.75238022237, 112687.63842435343, 139742.6816514351, 0.044, 0.20600000000000002, 0.984, 192.0, 0.0, 0.0, 0.0, 0.0, 0.0, 0.0, 0.0, 0.0, 0.0, 1.7243832310498152E9, 0.0, 2024-08-23 11:20:31.049
67.0, 187500.0, 103587.28213158634, 116139.97711419787, 114084.91302548803, 114565.00614464357, 110963.33545009322, 112704.93867456182, 139754.86335216326, 0.044, 0.20600000000000002, 0.984, 192.0, 0.0, 0.0, 0.0, 0.0, 0.0, 0.0, 0.0, 0.0, 0.0, 1.7243832310538223E9, 0.0, 2024-08-23 11:20:31.053
68.0, 187500.0, 103611.13144292014, 116165.10047496564, 114119.80409858277, 114585.301528609, 111005.49084013591, 112728.25154402871, 139775.22579136203, 0.044, 0.20600000000000002, 0.984, 192.0, 0.0, 0.0, 0.0, 0.0, 0.0, 0.0, 0.0, 0.0, 0.0, 1.7243832310578396E9, 0.0, 2024-08-23 11:20:31.057
69.0, 187500.0, 103617.88166974565, 116170.86722503511, 114138.42310171404, 114601.88652299483, 111022.03113103285, 112729.52559346266, 139774.86816345074, 0.044, 0.20600000000000002, 0.984, 192.0, 0.0, 0.0, 0.0, 0.0, 0.0, 0.0, 0.0, 0.0, 0.0, 1.7243832310608463E9, 0.0, 2024-08-23 11:20:31.060
70.0, 187500.0, 103593.22769561145, 116145.54269856724, 114108.9858542664, 114583.96042394167, 110993.35384289669, 112705.96685480677, 139750.1247823387, 0.044, 0.20600000000000002, 0.984, 192.0, 0.0, 0.0, 0.0, 0.0, 0.0, 0.0, 0.0, 0.0, 0.0, 1.724383231064818E9, 0.0, 2024-08-23 11:20:31.064
71.0, 187500.0, 103560.50474172887, 116115.81487844168, 114066.85281596814, 114551.30452529246, 110945.74462720689, 112678.78713354912, 139726.0296018159, 0.044, 0.20600000000000002, 0.984, 192.0, 0.0, 0.0, 0.0, 0.0, 0.0, 0.0, 0.0, 0.0, 0.0, 1.7243832310688963E9, 0.0, 2024-08-23 11:20:31.068
72.0, 187500.0, 103570.45126801149, 116127.57189602518, 114068.64095552456, 114556.84775791738, 110939.06145561475, 112692.10877324449, 139748.11312533775, 0.04, 0.20600000000000002, 0.986, 192.0, 1.0, 64.0, 6.0, 112.0, 30.0, 208.0, 0.0, 0.0, 0.0, 1.7243832310728612E9, 0.0, 2024-08-23 11:20:31.072
73.0, 187500.0, 103609.0527306858, 116164.09464646515, 114114.19381072448, 114581.72524949614, 110994.2479126749, 112725.54698294961, 139788.52507931294, 0.04, 0.20600000000000002, 0.986, 192.0, 0.0, 0.0, 0.0, 0.0, 0.0, 0.0, 0.0, 0.0, 0.0, 1.7243832310779316E9, 0.0, 2024-08-23 11:20:31.077
74.0, 187500.0, 103610.41618709758, 116160.85364351913, 114126.12964226362, 114582.1946361297, 111017.73959609742, 112721.59072418103, 139782.26659086545, 0.04, 0.20600000000000002, 0.986, 192.0, 0.0, 0.0, 0.0, 0.0, 0.0, 0.0, 0.0, 0.0, 0.0, 1.7243832310818784E9, 0.0, 2024-08-23 11:20:31.081
75.0, 187500.0, 103582.56591350626, 116132.42222457197, 114098.14525820556, 114565.78845569951, 110996.48308712043, 112694.23218896774, 139749.36482302725, 0.04, 0.20600000000000002, 0.986, 192.0, 0.0, 0.0, 0.0, 0.0, 0.0, 0.0, 0.0, 0.0, 0.0, 1.7243832310849936E9, 0.0, 2024-08-23 11:20:31.084
76.0, 187500.0, 103564.66216619757, 116115.56900925268, 114072.55251080425, 114555.12667359432, 110961.41320007005, 112680.91054927238, 139738.36776475524, 0.04, 0.20600000000000002, 0.986, 192.0, 0.0, 0.0, 0.0, 0.0, 0.0, 0.0, 0.0, 0.0, 0.0, 1.7243832310889225E9, 0.0, 2024-08-23 11:20:31.088
77.0, 187500.0, 103558.26956728335, 116110.78573593924, 114057.39802806354, 114545.04603684499, 110939.97787713741, 112682.83279929553, 139738.56893045534, 0.04, 0.20600000000000002, 0.986, 192.0, 0.0, 0.0, 0.0, 0.0, 0.0, 0.0, 0.0, 0.0, 0.0, 1.7243832310929017E9, 0.0, 2024-08-23 11:20:31.092
78.0, 187500.0, 103609.00802719689, 116158.52906209578, 114120.34054044969, 114595.85155199189, 111011.41405241657, 112724.25058177121, 139786.28990486742, 0.04, 0.20600000000000002, 0.986, 192.0, 0.0, 0.0, 0.0, 0.0, 0.0, 0.0, 0.0, 0.0, 0.0, 1.7243832310969071E9, 0.0, 2024-08-23 11:20:31.096
79.0, 187500.0, 103625.9059460051, 116174.15293147003, 114149.42015998604, 114616.01282549059, 111045.79103538884, 112738.75686392271, 139802.24905040849, 0.04, 0.20600000000000002, 0.986, 192.0, 0.0, 0.0, 0.0, 0.0, 0.0, 0.0, 0.0, 0.0, 0.0, 1.7243832311009133E9, 0.0, 2024-08-23 11:20:31.100
80.0, 187500.0, 103592.17716362205, 116144.17924215547, 114112.20450546796, 114580.9429384402, 111002.696872079, 112711.93477057634, 139765.92746566862, 0.04, 0.20600000000000002, 0.986, 192.0, 0.0, 0.0, 0.0, 0.0, 0.0, 0.0, 0.0, 0.0, 0.0, 1.7243832311059165E9, 0.0, 2024-08-23 11:20:31.105
81.0, 187500.0, 103546.87017761114, 116103.05203235771, 114062.74009498836, 114539.4357489867, 110941.65425797156, 112672.61805207946, 139721.44749420256, 0.04, 0.20600000000000002, 0.986, 192.0, 0.0, 0.0, 0.0, 0.0, 0.0, 0.0, 0.0, 0.0, 0.0, 1.72438323110999E9, 0.0, 2024-08-23 11:20:31.109
82.0, 187500.0, 103557.10727657167, 116113.42324178497, 114066.36107759012, 114552.82444391542, 110940.3355050487, 112683.45864814028, 139734.12093330873, 0.044, 0.20400000000000001, 0.988, 192.0, 1.0, 96.0, 6.0, 96.0, 30.0, 224.0, 0.0, 0.0, 0.0, 1.724383231113896E9, 0.0, 2024-08-23 11:20:31.113
83.0, 187500.0, 103607.44340508503, 116163.2229284314, 114128.09659577569, 114594.86807523586, 111011.36934892766, 112730.37495975196, 139783.2947711104, 0.044, 0.20400000000000001, 0.988, 192.0, 0.0, 0.0, 0.0, 0.0, 0.0, 0.0, 0.0, 0.0, 0.0, 1.7243832311169572E9, 0.0, 2024-08-23 11:20:31.116
84.0, 187500.0, 103594.92642819005, 116146.88380323457, 114117.03248227031, 114567.93422316722, 111002.31689242327, 112713.14176477693, 139769.7943174594, 0.044, 0.20400000000000001, 0.988, 192.0, 0.0, 0.0, 0.0, 0.0, 0.0, 0.0, 0.0, 0.0, 0.0, 1.724383231120953E9, 0.0, 2024-08-23 11:20:31.120
85.0, 187500.0, 103573.87108491315, 116124.59911401261, 114086.12001968862, 114546.74476942359, 110971.35972635266, 112690.7006133438, 139745.00623285846, 0.044, 0.20400000000000001, 0.988, 192.0, 0.0, 0.0, 0.0, 0.0, 0.0, 0.0, 0.0, 0.0, 0.0, 1.7243832311249602E9, 0.0, 2024-08-23 11:20:31.124
86.0, 187500.0, 103563.65633769707, 116114.22790458536, 114070.92083345901, 114555.66311546126, 110951.84665344318, 112680.68703182782, 139733.80800888635, 0.044, 0.20400000000000001, 0.988, 192.0, 0.0, 0.0, 0.0, 0.0, 0.0, 0.0, 0.0, 0.0, 0.0, 1.7243832311289382E9, 0.0, 2024-08-23 11:20:31.128
87.0, 187500.0, 103567.00909936537, 116116.7536517088, 114069.28915611377, 114559.30644980747, 110946.70575221846, 112689.40421216539, 139744.84977064727, 0.044, 0.20400000000000001, 0.988, 192.0, 0.0, 0.0, 0.0, 0.0, 0.0, 0.0, 0.0, 0.0, 0.0, 1.7243832311330016E9, 0.0, 2024-08-23 11:20:31.133
88.0, 187500.0, 103613.94776272152, 116161.3677336416, 114127.91778182004, 114606.8486102639, 111016.80082283031, 112728.855041129, 139783.51828855494, 0.044, 0.20400000000000001, 0.988, 192.0, 0.0, 0.0, 0.0, 0.0, 0.0, 0.0, 0.0, 0.0, 0.0, 1.7243832311379616E9, 0.0, 2024-08-23 11:20:31.137
89.0, 187500.0, 103632.92439376407, 116178.51152163882, 114152.99643909889, 114628.75331983011, 111041.32068649778, 112739.42741625637, 139799.23156490704, 0.044, 0.20400000000000001, 0.988, 192.0, 0.0, 0.0, 0.0, 0.0, 0.0, 0.0, 0.0, 0.0, 0.0, 1.724383231140988E9, 0.0, 2024-08-23 11:20:31.140
90.0, 187500.0, 103595.84284971272, 116143.28517237726, 114109.29877868877, 114587.80492398798, 110995.43255513103, 112705.94450306232, 139770.50957328198, 0.044, 0.20400000000000001, 0.988, 192.0, 0.0, 0.0, 0.0, 0.0, 0.0, 0.0, 0.0, 0.0, 0.0, 1.7243832311449685E9, 0.0, 2024-08-23 11:20:31.144
91.0, 187500.0, 103568.39490752161, 116118.8547156876, 114073.424228838, 114559.35115329637, 110953.81360695526, 112687.23609295323, 139742.4357822461, 0.044, 0.20400000000000001, 0.988, 192.0, 0.0, 0.0, 0.0, 0.0, 0.0, 0.0, 0.0, 0.0, 0.0, 1.7243832311489973E9, 0.0, 2024-08-23 11:20:31.148
92.0, 187500.0, 103561.93525337402, 116117.31244532019, 114066.09285665666, 114552.82444391542, 110945.94579290698, 112690.41004066588, 139736.89254962117, 0.046, 0.202, 0.988, 192.0, 1.0, 112.0, 6.0, 80.0, 30.0, 224.0, 0.0, 0.0, 0.0, 1.7243832311530445E9, 0.0, 2024-08-23 11:20:31.153
93.0, 187500.0, 103617.14406217863, 116168.90027152305, 114134.91387783455, 114611.98951148863, 111027.17203225757, 112732.4089684974, 139791.63197179223, 0.046, 0.202, 0.988, 192.0, 0.0, 0.0, 0.0, 0.0, 0.0, 0.0, 0.0, 0.0, 0.0, 1.7243832311570077E9, 0.0, 2024-08-23 11:20:31.157
94.0, 187500.0, 103617.456986601, 116166.95566975542, 114143.7428168944, 114609.30730215399, 111036.02332306188, 112724.6082096825, 139786.75929150096, 0.046, 0.202, 0.988, 192.0, 0.0, 0.0, 0.0, 0.0, 0.0, 0.0, 0.0, 0.0, 0.0, 1.7243832311609995E9, 0.0, 2024-08-23 11:20:31.160
95.0, 187500.0, 103569.11016334417, 116121.02283489978, 114090.32214764622, 114559.41820852975, 110975.18187465452, 112682.25165393969, 139737.87602637723, 0.046, 0.202, 0.988, 192.0, 0.0, 0.0, 0.0, 0.0, 0.0, 0.0, 0.0, 0.0, 0.0, 1.7243832311660633E9, 0.0, 2024-08-23 11:20:31.166
96.0, 187500.0, 103549.35122124568, 116102.4038317685, 114056.79453096325, 114532.64081867228, 110934.38994102359, 112666.98541247672, 139721.29103199136, 0.046, 0.202, 0.988, 192.0, 0.0, 0.0, 0.0, 0.0, 0.0, 0.0, 0.0, 0.0, 0.0, 1.7243832311690364E9, 0.0, 2024-08-23 11:20:31.169
97.0, 187500.0, 103578.36378554867, 116132.75750073881, 114078.65453704055, 114565.58728999941, 110954.79708371128, 112700.04364252611, 139752.5834742288, 0.046, 0.202, 0.988, 192.0, 0.0, 0.0, 0.0, 0.0, 0.0, 0.0, 0.0, 0.0, 0.0, 1.724383231173034E9, 0.0, 2024-08-23 11:20:31.173
98.0, 187500.0, 103626.2635739164, 116177.86332104962, 114138.19958426949, 114616.7057295687, 111020.91354381008, 112741.05909360161, 139798.11397768426, 0.046, 0.202, 0.988, 192.0, 0.0, 0.0, 0.0, 0.0, 0.0, 0.0, 0.0, 0.0, 0.0, 1.7243832311771333E9, 0.0, 2024-08-23 11:20:31.177
99.0, 187500.0, 103621.14502443613, 116169.63787909006, 114142.78169188282, 114613.06239522249, 111031.64238114863, 112727.87156437297, 139786.13344265622, 0.046, 0.202, 0.988, 192.0, 0.0, 0.0, 0.0, 0.0, 0.0, 0.0, 0.0, 0.0, 0.0, 1.724383231180992E9, 0.0, 2024-08-23 11:20:31.180
100.0, 187500.0, 103585.0022536519, 116133.04807341672, 114101.98975825189, 114582.66402276326, 110987.52003759386, 112693.49458140071, 139750.8400381613, 0.046, 0.202, 0.988, 192.0, 0.0, 0.0, 0.0, 0.0, 0.0, 0.0, 0.0, 0.0, 0.0, 1.7243832311850579E9, 0.0, 2024-08-23 11:20:31.185
101.0, 187500.0, 103546.6913636555, 116095.02775609825, 114052.14536811654, 114537.35703675235, 110932.5794497227, 112661.68804904081, 139717.35712496724, 0.046, 0.202, 0.988, 192.0, 0.0, 0.0, 0.0, 0.0, 0.0, 0.0, 0.0, 0.0, 0.0, 1.72438323118901E9, 0.0, 2024-08-23 11:20:31.189
102.0, 187500.0, 103534.86729083864, 116083.80718038169, 114035.4709667529, 114521.59905691136, 110913.42400472451, 112660.16813041785, 139715.1890057551, 0.038, 0.194, 0.984, 192.0, 1.0, 48.0, 6.0, 16.0, 30.0, 192.0, 0.0, 0.0, 0.0, 1.7243832311940532E9, 0.0, 2024-08-23 11:20:31.194
103.0, 187500.0, 103613.43367259904, 116160.1160359521, 114129.21418299845, 114604.38991837382, 111016.93493329705, 112729.72675916276, 139789.12857641323, 0.038, 0.194, 0.984, 192.0, 0.0, 0.0, 0.0, 0.0, 0.0, 0.0, 0.0, 0.0, 0.0, 1.7243832311970568E9, 0.0, 2024-08-23 11:20:31.197
104.0, 187500.0, 103642.3121264353, 116187.54162639877, 114167.23450031693, 114633.35777918789, 111058.17390181708, 112754.42543678588, 139815.9506697596, 0.038, 0.194, 0.984, 192.0, 0.0, 0.0, 0.0, 0.0, 0.0, 0.0, 0.0, 0.0, 0.0, 1.7243832312010393E9, 0.0, 2024-08-23 11:20:31.201
105.0, 187500.0, 103596.6028090242, 116142.14523341003, 114112.89740954607, 114582.06052566296, 111002.31689242327, 112714.23700025523, 139773.0353204054, 0.038, 0.194, 0.984, 192.0, 0.0, 0.0, 0.0, 0.0, 0.0, 0.0, 0.0, 0.0, 0.0, 1.7243832312050624E9, 0.0, 2024-08-23 11:20:31.205
106.0, 187500.0, 103542.71275314245, 116089.77509615125, 114053.84410069515, 114539.41339724224, 110940.38020853761, 112664.66083105336, 139717.46888368952, 0.038, 0.194, 0.984, 192.0, 0.0, 0.0, 0.0, 0.0, 0.0, 0.0, 0.0, 0.0, 0.0, 1.7243832312090616E9, 0.0, 2024-08-23 11:20:31.209
107.0, 187500.0, 103552.45811372496, 116102.62734921306, 114058.60502226414, 114552.26565030405, 110940.67078121554, 112680.77643880564, 139727.14718903866, 0.038, 0.194, 0.984, 192.0, 0.0, 0.0, 0.0, 0.0, 0.0, 0.0, 0.0, 0.0, 0.0, 1.7243832312130792E9, 0.0, 2024-08-23 11:20:31.213
108.0, 187500.0, 103627.53762335035, 116176.00812625983, 114144.86040411716, 114630.76497683108, 111029.36250321419, 112742.15432907992, 139806.85350976628, 0.038, 0.194, 0.984, 192.0, 0.0, 0.0, 0.0, 0.0, 0.0, 0.0, 0.0, 0.0, 0.0, 1.7243832312170365E9, 0.0, 2024-08-23 11:20:31.217
109.0, 187500.0, 103627.91760300608, 116175.33757392617, 114154.18108155503, 114627.09929074041, 111035.33041898375, 112740.43324475686, 139806.31706789936, 0.038, 0.194, 0.984, 192.0, 0.0, 0.0, 0.0, 0.0, 0.0, 0.0, 0.0, 0.0, 0.0, 1.724383231222051E9, 0.0, 2024-08-23 11:20:31.222
110.0, 187500.0, 103599.9555706925, 116151.33180038117, 114120.63111312762, 114590.08480192242, 110998.29357842132, 112719.91434334689, 139777.21509661854, 0.038, 0.194, 0.984, 192.0, 0.0, 0.0, 0.0, 0.0, 0.0, 0.0, 0.0, 0.0, 0.0, 1.7243832312251318E9, 0.0, 2024-08-23 11:20:31.225
111.0, 187500.0, 103555.87793062664, 116112.97620689587, 114070.2279293809, 114547.12474907932, 110945.43170278451, 112684.06214524058, 139733.89741586416, 0.038, 0.194, 0.984, 192.0, 0.0, 0.0, 0.0, 0.0, 0.0, 0.0, 0.0, 0.0, 0.0, 1.7243832312281463E9, 0.0, 2024-08-23 11:20:31.228
112.0, 187500.0, 103548.36774448965, 116107.56708473768, 114060.9743071764, 114551.86331890385, 110936.3345427912, 112679.70355507178, 139730.49995070696, 0.038, 0.202, 0.986, 192.0, 1.0, 48.0, 6.0, 80.0, 30.0, 208.0, 0.0, 0.0, 0.0, 1.724383231233163E9, 0.0, 2024-08-23 11:20:31.233
113.0, 187500.0, 103613.6571900436, 116166.73215231087, 114136.45614820196, 114622.6065901049, 111021.18176474355, 112728.51976496217, 139788.65918977966, 0.038, 0.202, 0.986, 192.0, 0.0, 0.0, 0.0, 0.0, 0.0, 0.0, 0.0, 0.0, 0.0, 1.7243832312371545E9, 0.0, 2024-08-23 11:20:31.237
114.0, 187500.0, 103636.52302462138, 116186.2228734759, 114166.34043053871, 114640.97972404715, 111054.75408491542, 112747.40698902692, 139811.41326563517, 0.038, 0.202, 0.986, 192.0, 0.0, 0.0, 0.0, 0.0, 0.0, 0.0, 0.0, 0.0, 0.0, 1.7243832312411513E9, 0.0, 2024-08-23 11:20:31.241
115.0, 187500.0, 103599.12855614765, 116147.64376254604, 114121.61458988364, 114603.18292417323, 111005.31202618028, 112712.89589558792, 139779.3385123418, 0.038, 0.202, 0.986, 192.0, 0.0, 0.0, 0.0, 0.0, 0.0, 0.0, 0.0, 0.0, 0.0, 1.7243832312452276E9, 0.0, 2024-08-23 11:20:31.245
116.0, 187500.0, 103568.61842496616, 116117.6030179981, 114082.58844406468, 114572.4939790361, 110964.20716812697, 112687.05727899758, 139749.4318782606, 0.038, 0.202, 0.986, 192.0, 0.0, 0.0, 0.0, 0.0, 0.0, 0.0, 0.0, 0.0, 0.0, 1.7243832312501447E9, 0.0, 2024-08-23 11:20:31.250
117.0, 187500.0, 103565.93621563152, 116118.07240463168, 114074.58651954967, 114570.48232203512, 110950.70671447596, 112688.8007150651, 139742.6816514351, 0.038, 0.202, 0.986, 192.0, 0.0, 0.0, 0.0, 0.0, 0.0, 0.0, 0.0, 0.0, 0.0, 1.7243832312532215E9, 0.0, 2024-08-23 11:20:31.253
118.0, 187500.0, 103613.52307957687, 116166.0168964883, 114131.69522663299, 114615.47638362365, 111017.76194784188, 112728.83268938455, 139787.27338162344, 0.038, 0.202, 0.986, 192.0, 0.0, 0.0, 0.0, 0.0, 0.0, 0.0, 0.0, 0.0, 0.0, 1.7243832312581396E9, 0.0, 2024-08-23 11:20:31.258
119.0, 187500.0, 103624.92246924907, 116174.53291112577, 114151.07418907573, 114620.55022961501, 111034.41399746109, 112735.40410225441, 139795.14119567172, 0.038, 0.202, 0.986, 192.0, 0.0, 0.0, 0.0, 0.0, 0.0, 0.0, 0.0, 0.0, 0.0, 1.724383231261118E9, 0.0, 2024-08-23 11:20:31.261
120.0, 187500.0, 103579.05668962678, 116126.72252973588, 114097.675871572, 114572.292813336, 110978.55698806727, 112696.13208724644, 139753.96928238505, 0.038, 0.202, 0.986, 192.0, 0.0, 0.0, 0.0, 0.0, 0.0, 0.0, 0.0, 0.0, 0.0, 1.7243832312651396E9, 0.0, 2024-08-23 11:20:31.265
121.0, 187500.0, 103537.05776179527, 116085.61767168257, 114047.07152212519, 114534.51836520653, 110924.89044963008, 112657.70943852776, 139716.79833135585, 0.038, 0.202, 0.986, 192.0, 0.0, 0.0, 0.0, 0.0, 0.0, 0.0, 0.0, 0.0, 0.0, 1.724383231269179E9, 0.0, 2024-08-23 11:20:31.269
122.0, 187500.0, 103547.67484041154, 116099.16282882247, 114053.66528673952, 114541.60386819886, 110927.55030722027, 112671.94749974579, 139727.63892741667, 0.04, 0.2, 0.986, 192.0, 1.0, 64.0, 6.0, 64.0, 30.0, 208.0, 0.0, 0.0, 0.0, 1.724383231273164E9, 0.0, 2024-08-23 11:20:31.273
123.0, 187500.0, 103591.41720431056, 116139.53007930877, 114102.21327569644, 114573.45510404768, 110994.31496790827, 112710.59366590902, 139768.72143372553, 0.04, 0.2, 0.986, 192.0, 0.0, 0.0, 0.0, 0.0, 0.0, 0.0, 0.0, 0.0, 0.0, 1.7243832312772512E9, 0.0, 2024-08-23 11:20:31.277
124.0, 187500.0, 103595.64168401262, 116139.88770722006, 114120.07231951623, 114589.63776703332, 111019.19245948702, 112707.91145657438, 139764.7875267014, 0.04, 0.2, 0.986, 192.0, 0.0, 0.0, 0.0, 0.0, 0.0, 0.0, 0.0, 0.0, 0.0, 1.7243832312811491E9, 0.0, 2024-08-23 11:20:31.281
125.0, 187500.0, 103568.43961101052, 116113.1550208515, 114093.2278744254, 114578.08191514993, 110975.47244733245, 112683.3915929069, 139733.47273271953, 0.04, 0.2, 0.986, 192.0, 0.0, 0.0, 0.0, 0.0, 0.0, 0.0, 0.0, 0.0, 0.0, 1.724383231284157E9, 0.0, 2024-08-23 11:20:31.284
126.0, 187500.0, 103551.20641603546, 116099.2522358003, 114062.76244673283, 114559.06058061846, 110931.95360087795, 112674.47324686924, 139717.93827032307, 0.04, 0.2, 0.986, 192.0, 0.0, 0.0, 0.0, 0.0, 0.0, 0.0, 0.0, 0.0, 0.0, 1.7243832312891238E9, 0.0, 2024-08-23 11:20:31.289
127.0, 187500.0, 103585.78456470784, 116135.663227518, 114083.59427256517, 114582.48520880761, 110951.690191232, 112712.65002639891, 139747.3308142818, 0.04, 0.2, 0.986, 192.0, 0.0, 0.0, 0.0, 0.0, 0.0, 0.0, 0.0, 0.0, 0.0, 1.7243832312931764E9, 0.0, 2024-08-23 11:20:31.293
128.0, 187500.0, 103647.69889684903, 116196.75054511435, 114156.14803506709, 114640.3538752024, 111029.80953810329, 112766.3165648361, 139802.45021610858, 0.04, 0.2, 0.986, 192.0, 0.0, 0.0, 0.0, 0.0, 0.0, 0.0, 0.0, 0.0, 0.0, 1.7243832312971444E9, 0.0, 2024-08-23 11:20:31.297
129.0, 187500.0, 103690.03310084739, 116236.00020837787, 114202.72907051195, 114671.44515173974, 111076.99407064845, 112798.05604196264, 139837.74362060352, 0.04, 0.2, 0.986, 192.0, 0.0, 0.0, 0.0, 0.0, 0.0, 0.0, 0.0, 0.0, 0.0, 1.724383231301169E9, 0.0, 2024-08-23 11:20:31.301
130.0, 187500.0, 103655.65611787511, 116200.95267307195, 114161.17717756954, 114629.71444484168, 111037.6102969182, 112764.08139039057, 139808.50753885598, 0.04, 0.2, 0.986, 192.0, 0.0, 0.0, 0.0, 0.0, 0.0, 0.0, 0.0, 0.0, 0.0, 1.7243832313041673E9, 0.0, 2024-08-23 11:20:31.304
131.0, 187500.0, 103588.46677404246, 116134.09860540612, 114085.29300514377, 114565.67669697723, 110960.00504016937, 112701.22828498225, 139754.14809634068, 0.04, 0.2, 0.986, 192.0, 0.0, 0.0, 0.0, 0.0, 0.0, 0.0, 0.0, 0.0, 0.0, 1.7243832313082137E9, 0.0, 2024-08-23 11:20:31.308
132.0, 187500.0, 103586.9468554195, 116133.27159086127, 114077.73811551787, 114569.05181038998, 110950.46084528696, 112704.46928792827, 139766.75448021348, 0.04, 0.198, 0.992, 192.0, 1.0, 64.0, 6.0, 48.0, 31.0, 0.0, 0.0, 0.0, 0.0, 1.7243832313122687E9, 0.0, 2024-08-23 11:20:31.312
133.0, 187500.0, 103643.02738225787, 116185.28410020878, 114146.91676460706, 114631.43552916474, 111029.76483461438, 112744.65772445891, 139817.738809316, 0.04, 0.198, 0.992, 192.0, 0.0, 0.0, 0.0, 0.0, 0.0, 0.0, 0.0, 0.0, 0.0, 1.724383231317181E9, 0.0, 2024-08-23 11:20:31.317
134.0, 187500.0, 103638.5123298779, 116179.24912920584, 114155.41042750007, 114625.42290990626, 111043.5558609433, 112738.13101507796, 139807.7475795445, 0.04, 0.198, 0.992, 192.0, 0.0, 0.0, 0.0, 0.0, 0.0, 0.0, 0.0, 0.0, 0.0, 1.7243832313212128E9, 0.0, 2024-08-23 11:20:31.321
135.0, 187500.0, 103579.77194544935, 116122.69921573393, 114091.23856916888, 114559.95465039667, 110977.48410433342, 112686.47613364174, 139752.24819806198, 0.04, 0.198, 0.992, 192.0, 0.0, 0.0, 0.0, 0.0, 0.0, 0.0, 0.0, 0.0, 0.0, 1.7243832313251982E9, 0.0, 2024-08-23 11:20:31.325
136.0, 187500.0, 103515.3318661847, 116060.62842138154, 114017.72368165538, 114497.54857987746, 110894.44737368195, 112631.46849053723, 139695.69828459006, 0.04, 0.198, 0.992, 192.0, 0.0, 0.0, 0.0, 0.0, 0.0, 0.0, 0.0, 0.0, 0.0, 1.7243832313292236E9, 0.0, 2024-08-23 11:20:31.329
137.0, 187500.0, 103514.9295347845, 116062.3942091935, 114015.17558278747, 114506.28811195948, 110891.87692306959, 112636.31881908403, 139702.0238282709, 0.04, 0.198, 0.992, 192.0, 0.0, 0.0, 0.0, 0.0, 0.0, 0.0, 0.0, 0.0, 0.0, 1.7243832313322387E9, 0.0, 2024-08-23 11:20:31.332
138.0, 187500.0, 103613.8583557437, 116162.53002435328, 114128.9906655539, 114616.16928770176, 111017.47137516396, 112725.27876201615, 139791.0955299253, 0.04, 0.198, 0.992, 192.0, 0.0, 0.0, 0.0, 0.0, 0.0, 0.0, 0.0, 0.0, 0.0, 1.7243832313362975E9, 0.0, 2024-08-23 11:20:31.336
139.0, 187500.0, 103638.5123298779, 116183.674774608, 114164.46288400446, 114645.85240433841, 111054.64232619313, 112744.16598608089, 139808.21696617806, 0.04, 0.198, 0.992, 192.0, 0.0, 0.0, 0.0, 0.0, 0.0, 0.0, 0.0, 0.0, 0.0, 1.724383231340332E9, 0.0, 2024-08-23 11:20:31.340
140.0, 187500.0, 103593.205343867, 116139.59713454213, 114119.35706369366, 114595.96331071417, 111001.1993052005, 112707.95616006329, 139766.97799765802, 0.04, 0.198, 0.992, 192.0, 0.0, 0.0, 0.0, 0.0, 0.0, 0.0, 0.0, 0.0, 0.0, 1.724383231344276E9, 0.0, 2024-08-23 11:20:31.344
141.0, 187500.0, 103552.74868640289, 116101.01802361227, 114069.40091483605, 114547.75059792407, 110944.22470858392, 112674.45089512478, 139730.20937802905, 0.04, 0.198, 0.992, 192.0, 0.0, 0.0, 0.0, 0.0, 0.0, 0.0, 0.0, 0.0, 0.0, 1.7243832313492186E9, 0.0, 2024-08-23 11:20:31.349
142.0, 187500.0, 103560.61650045116, 116111.97037839537, 114073.64774628256, 114558.47943526262, 110947.2868975743, 112689.2477499542, 139739.485351978, 0.042, 0.2, 0.99, 192.0, 1.0, 80.0, 6.0, 64.0, 30.0, 240.0, 0.0, 0.0, 0.0, 1.724383231353263E9, 0.0, 2024-08-23 11:20:31.353
143.0, 187500.0, 103587.97503566445, 116139.03834093075, 114114.41732816903, 114579.60183377289, 110999.45586913299, 112713.54409617712, 139767.7826604584, 0.042, 0.2, 0.99, 192.0, 0.0, 0.0, 0.0, 0.0, 0.0, 0.0, 0.0, 0.0, 0.0, 1.7243832313572803E9, 0.0, 2024-08-23 11:20:31.357
144.0, 187500.0, 103577.40266053709, 116126.43195705795, 114115.08788050269, 114570.8399499464, 111001.8028023008, 112697.6073023805, 139752.71758469555, 0.042, 0.2, 0.99, 192.0, 0.0, 0.0, 0.0, 0.0, 0.0, 0.0, 0.0, 0.0, 0.0, 1.724383231360284E9, 0.0, 2024-08-23 11:20:31.360
145.0, 187500.0, 103558.18016030552, 116108.34939579362, 114090.25509241284, 114562.05571437547, 110976.1429996661, 112678.02717423764, 139734.45620947555, 0.042, 0.2, 0.99, 192.0, 0.0, 0.0, 0.0, 0.0, 0.0, 0.0, 0.0, 0.0, 0.0, 1.7243832313642623E9, 0.0, 2024-08-23 11:20:31.364
146.0, 187500.0, 103546.55725318877, 116097.48644798834, 114073.46893232691, 114563.95561265417, 110949.52207201983, 112667.07481945453, 139724.80025587085, 0.042, 0.2, 0.99, 192.0, 0.0, 0.0, 0.0, 0.0, 0.0, 0.0, 0.0, 0.0, 0.0, 1.7243832313683355E9, 0.0, 2024-08-23 11:20:31.368
147.0, 187500.0, 103553.91097711456, 116107.00829112629, 114074.56416780522, 114576.1373133823, 110942.8389004277, 112679.70355507178, 139738.4795234775, 0.042, 0.2, 0.99, 192.0, 0.0, 0.0, 0.0, 0.0, 0.0, 0.0, 0.0, 0.0, 0.0, 1.7243832313722992E9, 0.0, 2024-08-23 11:20:31.372
148.0, 187500.0, 103590.2549135989, 116142.07817817667, 114120.45229917197, 114603.78642127353, 111002.62981684564, 112717.56741017908, 139774.9352186841, 0.042, 0.2, 0.99, 192.0, 0.0, 0.0, 0.0, 0.0, 0.0, 0.0, 0.0, 0.0, 0.0, 1.7243832313773527E9, 0.0, 2024-08-23 11:20:31.377
149.0, 187500.0, 103591.61837001066, 116138.27838161927, 114126.35315970817, 114596.85738049238, 111013.55981988429, 112710.01252055318, 139768.9002476812, 0.042, 0.2, 0.99, 192.0, 0.0, 0.0, 0.0, 0.0, 0.0, 0.0, 0.0, 0.0, 0.0, 1.7243832313813038E9, 0.0, 2024-08-23 11:20:31.381
150.0, 187500.0, 103552.72633465844, 116099.76632592277, 114076.59817655066, 114549.91871713624, 110959.73681923591, 112675.03204048063, 139731.05874431835, 0.042, 0.2, 0.99, 192.0, 0.0, 0.0, 0.0, 0.0, 0.0, 0.0, 0.0, 0.0, 0.0, 1.7243832313853955E9, 0.0, 2024-08-23 11:20:31.385
151.0, 187500.0, 103537.81772110674, 116087.2940525167, 114049.66432448202, 114536.37355999633, 110931.3277520332, 112662.26919439665, 139715.97131681102, 0.042, 0.2, 0.99, 192.0, 0.0, 0.0, 0.0, 0.0, 0.0, 0.0, 0.0, 0.0, 0.0, 1.7243832313883004E9, 0.0, 2024-08-23 11:20:31.388
152.0, 187500.0, 103535.20256700547, 116087.4505147279, 114046.42332153599, 114538.96636235314, 110927.97499036492, 112663.65500255287, 139710.8751190752, 0.034, 0.202, 0.992, 192.0, 1.0, 16.0, 6.0, 80.0, 31.0, 0.0, 0.0, 0.0, 0.0, 1.7243832313923187E9, 0.0, 2024-08-23 11:20:31.392
153.0, 187500.0, 103588.71264323147, 116137.9654571969, 114107.42123215452, 114586.91085420977, 110997.06423247627, 112709.56548566408, 139758.77490744292, 0.034, 0.202, 0.992, 192.0, 0.0, 0.0, 0.0, 0.0, 0.0, 0.0, 0.0, 0.0, 0.0, 1.7243832313964088E9, 0.0, 2024-08-23 11:20:31.396
154.0, 187500.0, 103608.85156498571, 116153.94695448244, 114136.00911331286, 114605.3510433854, 111030.10011078122, 112721.83659337004, 139781.21605887605, 0.034, 0.202, 0.992, 192.0, 0.0, 0.0, 0.0, 0.0, 0.0, 0.0, 0.0, 0.0, 0.0, 1.7243832314004636E9, 0.0, 2024-08-23 11:20:31.400
155.0, 187500.0, 103566.94204413201, 116111.67980571746, 114087.86345575613, 114559.73113295212, 110974.4889705764, 112686.40907840838, 139754.05868936286, 0.034, 0.202, 0.992, 192.0, 0.0, 0.0, 0.0, 0.0, 0.0, 0.0, 0.0, 0.0, 0.0, 1.7243832314053872E9, 0.0, 2024-08-23 11:20:31.405
156.0, 187500.0, 103540.99166881939, 116084.79065713772, 114053.57587976169, 114539.14517630878, 110935.01578986834, 112666.40426712087, 139721.87217734722, 0.034, 0.202, 0.992, 192.0, 0.0, 0.0, 0.0, 0.0, 0.0, 0.0, 0.0, 0.0, 0.0, 1.7243832314103365E9, 0.0, 2024-08-23 11:20:31.410
157.0, 187500.0, 103530.2851832253, 116076.56521517817, 114038.35434178762, 114532.10437680536, 110919.90601061656, 112658.98348796171, 139711.65743013113, 0.034, 0.202, 0.992, 192.0, 0.0, 0.0, 0.0, 0.0, 0.0, 0.0, 0.0, 0.0, 0.0, 1.7243832314133692E9, 0.0, 2024-08-23 11:20:31.413
158.0, 187500.0, 103561.42116325155, 116105.39896552551, 114070.74201950336, 114552.62327821532, 110960.67559250303, 112682.31870917305, 139737.65250893266, 0.034, 0.202, 0.992, 192.0, 0.0, 0.0, 0.0, 0.0, 0.0, 0.0, 0.0, 0.0, 0.0, 1.7243832314173667E9, 0.0, 2024-08-23 11:20:31.417
159.0, 187500.0, 103583.30352107329, 116124.21913435688, 114098.61464483914, 114570.10234237938, 110993.97969174144, 112693.8969128009, 139754.95275914107, 0.034, 0.202, 0.992, 192.0, 0.0, 0.0, 0.0, 0.0, 0.0, 0.0, 0.0, 0.0, 0.0, 1.724383231420356E9, 0.0, 2024-08-23 11:20:31.420
160.0, 187500.0, 103582.27534082835, 116123.61563725659, 114101.29685417376, 114591.80588624548, 110993.77852604134, 112691.88525579993, 139753.11991609575, 0.034, 0.202, 0.992, 192.0, 0.0, 0.0, 0.0, 0.0, 0.0, 0.0, 0.0, 0.0, 0.0, 1.7243832314243617E9, 0.0, 2024-08-23 11:20:31.424
